! Center RA: 12 21 31.69052,  Dec: +28 13 58.50011 (2000.0)
! Established model.
! Flux (Jy) Radius (mas)  Theta (deg)  Major FWHM (mas)  Axial ratio   Phi (deg) T \
! Freq (Hz)     SpecIndex
 0.0975449    0.0335410     -153.435 
 0.0614290    0.0335410     -116.565 
 0.0625989     0.305941      101.310 
 0.0335957    0.0212132     -135.000 
 0.0142849    0.0300000     -90.0000 
 0.0265553    0.0150000     -90.0000 
 0.0418352     0.309233      104.036 
 0.0165705    0.0212132     -45.0000 
 0.0128437    0.0335410     -26.5651 
 0.0194649     0.313209      106.699 
0.00852086    0.0474342     -18.4349 
 0.0206537     0.332039      108.435 
 0.0109730    0.0600000      0.00000 
0.00804351    0.0764853      11.3099 
0.00483659    0.0474342     -71.5651 
0.00166869    0.0807775      21.8014 
0.00160035    0.0948683      18.4349 
 0.0108494    0.0618466     -75.9638 
0.00579009     0.100623      26.5651 
0.00186307    0.0600000     -90.0000 
0.000466467     0.351141      109.983 
0.000913419     0.337083      110.854 
0.00260153     0.356546      112.249 
0.00923385    0.0764853     -78.6901 
0.00533577     0.108167      33.6901 
0.00201966     0.376198      113.499 
0.000388565     0.396011      114.624 
0.000383543     0.409695      113.749 
0.00625439     0.730548      109.179 
0.00260730     0.120000      90.0000 
0.00170658     0.744731      108.800 
0.00126238     0.150748      95.7106 
0.000409686     0.758947      108.435 
0.000405021     0.646220      111.801 
0.00242132     0.773191      108.083 
0.000395455     0.632317      112.306 
0.00113192     0.618466      112.834 
0.00546853     0.135000      90.0000 
0.00519187     0.787464      107.745 
0.00105546     0.604669      113.385 
0.000657678     0.624440      114.102 
0.00174525     0.610778      114.677 
0.000313522     0.577256      114.567 
0.000286241     0.563649      115.201 
0.000279815     0.597181      115.278 
0.000273675     0.483037      115.769 
0.000756435     0.469574      116.565 
0.00193121     0.120934      82.8750 
0.00141897     0.644302      114.775 
0.00169054     0.436033      116.565 
0.000230016     0.630714      115.346 
0.00125555     0.109202      74.0546 
0.00101180     0.650730      115.974 
0.000748608     0.801764      107.418 
0.00112055     0.123693      75.9638 
0.000562182     0.664248      115.408 
0.000362817     0.456207      117.408 
0.00127383    0.0807775     -68.1986 
0.00101197     0.670820      116.565 
0.000344116     0.100623      63.4349 
0.000827787     0.422670      117.474 
0.00142043     0.114237      66.8014 
0.000162674     0.811804      106.091 
0.000763257     0.895237      98.6732 
0.00170323     0.442945      118.301 
0.000298178     0.690978      117.121 
0.000288935     0.677661      117.699 
0.00130938     0.108167      56.3099 
0.000419823     0.893098      97.7218 
0.000525477     0.697943      118.217 
0.000647681     0.907965      97.5946 
0.000131215    0.0948683     -71.5651 
0.00333161      3.02989      95.6824 
0.000619724     0.463303      119.055 
0.000940335    0.0912414     -80.5377 
0.000124200     0.684763      118.811 
0.00103406     0.906104      96.6544 
0.000588286     0.705160      119.291 
0.000454435     0.450250      119.982 
0.000837948     0.470771      120.651 
0.000331915     0.120934      60.2551 
0.000742908      1.75506      108.435 
0.000218917     0.692116      119.899 
0.000210281     0.712618      120.343 
0.000860321     0.117154      50.1944 
0.00241020     0.491350      121.264 
0.000218184     0.904489      95.7106 
0.00190164      1.21648      87.1729 
0.00265777      3.01351      95.4268 
0.000571948     0.699714      120.964 
0.00109307      1.75038      107.969 
0.00278001      2.00630      101.646 
0.000345767     0.686895      121.608 
0.00221250     0.109202     -74.0546 
0.000319645     0.129035      54.4623 
0.000705140     0.707549      122.005 
0.00340388      3.01213      95.1428 
0.000898586      1.23082      87.9047 
0.000481422      1.37559      108.435 
0.00117340     0.511981      121.827 
0.000408257     0.127279      45.0000 
0.000484581      1.19887      121.701 
0.00143263     0.694874      122.661 
0.000660830      2.61198      114.063 
0.000246197      1.21953      121.931 
0.00245170     0.532658      122.347 
0.000504574      1.31462      106.574 
0.000624789      1.23037      88.6028 
0.000116892     0.129035      35.5377 
0.000658709      2.00938      102.065 
0.000524393      1.24825      122.735 
0.000267286     0.456207      62.5924 
0.000960401      2.61813      114.362 
0.000708735      2.02406      101.976 
0.000172174      1.31042      105.945 
0.00153951      3.01082      94.8585 
0.000860353      1.29192      105.489 
0.000368512      2.15081      112.989 
0.00101257     0.450250      60.0184 
0.00175947      2.74774      100.697 
0.000496664      1.27720      123.503 
0.00149673      2.02722      102.391 
0.000989587      2.12540      112.402 
0.000518867      1.24509      89.3097 
0.000657300     0.411886     -100.491 
0.000842201     0.919416      95.6176 
7.16579e-05     0.114237     -66.8014 
0.000904011      1.30638      124.237 
0.000630244      3.00958      94.5739 
0.000322093     0.661532      122.969 
0.000651081      2.63800      114.525 
0.00111821      1.20645     -38.4373 
0.000972968      2.41961      107.312 
9.95487e-05     0.142302      18.4349 
0.000119267     0.682294      123.341 
0.000740491     0.138293      12.5288 
0.00180568      2.99347      94.3106 
0.000885987     0.414879     -102.529 
0.000101799      2.73301      100.755 
0.000127595     0.553376      122.829 
2.67099e-05      1.26969      104.365 
0.000608066      1.28799      104.845 
0.000183927      1.83675      120.964 
9.23924e-05      1.32722      124.408 
0.000275680      1.24500      90.0000 
0.000498399      1.85734      121.122 
0.000288906      1.33576      124.939 
0.000275583      1.78827      108.587 
0.000520108      1.22753     -38.5505 
0.000447182     0.442945      61.6992 
0.000334050      2.99238      94.0242 
1.64505e-05     0.150748      5.71059 
-0.000844570     0.437321      95.9061 
0.000178597     0.120934     -60.2551 
8.64198e-05      1.31488      124.778 
-0.000702368      1.82409      126.304 
1.50527e-05      2.41519      106.972 
-0.00109671      1.08675      110.186 
6.94516e-05     0.135831      6.34019 
0.000138655      1.79311      109.041 
0.000210026      1.87794      121.278 
0.000125390     0.100623     -63.4349 
0.000962941      1.30638      105.313 
-0.000401489      1.53924      105.255 
-0.000687136     0.471010      99.1623 
2.68927e-05      2.62436      114.661 
7.80421e-05     0.108167     -56.3099 
7.77684e-05     0.135000      0.00000 
7.75993e-05      1.79806      109.493 
0.000246797     0.436033      63.4349 
0.000172163      1.73540      112.353 
3.74934e-05     0.120000      0.00000 
7.39400e-05     0.921005      96.5463 
-0.000207739     0.628033      49.8440 
7.30085e-05    0.0960469     -51.3402 
-4.85802e-05     0.612801      68.4590 
1.19412e-05      1.88577      121.667 
