! Center RA: 12 21 31.69052,  Dec: +28 13 58.50019 (2000.0)
! Established model.
! Flux (Jy) Radius (mas)  Theta (deg)  Major FWHM (mas)  Axial ratio   Phi (deg) T \
! Freq (Hz)     SpecIndex
 0.0454232      0.00000      0.00000 
 0.0484667    0.0300000     -90.0000 
 0.0229700    0.0300000      180.000 
0.00336086    0.0424264      135.000 
 0.0121344    0.0670820      116.565 
0.00356321    0.0670820     -63.4349 
 0.0122992    0.0600000     -90.0000 
 0.0203053    0.0948683      108.435 
 0.0124644    0.0670820     -116.565 
0.00406475     0.123693      104.036 
0.000193860     0.152971      101.310 
0.000911373     0.182483      99.4623 
0.000479725    0.0670820     -153.435 
0.00614592     0.212132      98.1301 
0.00115082     0.108167      123.690 
0.000263750    0.0948683     -161.565 
0.000660250     0.120000      180.000 
0.00452515     0.240000      90.0000 
0.00167024     0.108167     -56.3099 
0.00118411     0.123693     -165.964 
0.000675566     0.150000      180.000 
0.00172386     0.469574      116.565 
0.000348651     0.241868      97.1250 
0.000981162     0.127279     -45.0000 
0.000410625     0.152971     -168.690 
0.000737960    0.0600000      0.00000 
0.00155556    0.0424264      45.0000 
0.000686683     0.108167     -33.6901 
0.00186293     0.442945      118.301 
0.000295985     0.134164     -26.5651 
0.00150896     0.780000      112.620 
0.00129295     0.150000     -36.8699 
0.000403143    0.0670820      26.5651 
0.00100555     0.553173      102.529 
0.000340026     0.886397      113.962 
0.000505974     0.180000      180.000 
0.000322891    0.0948683      18.4349 
0.000226280     0.913893      66.8014 
0.000806003      2.16271      113.720 
0.000759080     0.657951      46.8476 
0.000687823      3.39000      97.6281 
0.000335043      3.12000      90.0000 
0.000855957      1.24310      109.747 
0.000515496     0.941541      67.5206 
0.000400496     0.483735      119.745 
0.00115264      3.12014      89.4491 
0.000867148     0.134164     -116.565 
0.000101873     0.560446      105.524 
0.000915906     0.792023      114.624 
0.000834472      2.15081      112.989 
0.000357872     0.902497      111.448 
0.00105839      13.0581      115.152 
0.000787514     0.174929     -30.9638 
0.000374059    0.0848528      45.0000 
0.000902883      1.21491      110.225 
0.000278415     0.969330      68.1986 
0.000154202      3.66197      108.138 
0.00103570      1.64454      128.333 
0.000271137      3.36027      97.6961 
0.000912308      3.69049      107.993 
0.000414623      1.83883      118.237 
0.000848943      2.88016      89.4032 
0.000510071      2.07694      100.823 
0.000665522      1.22560      111.541 
0.000141933     0.123693      14.0362 
0.000458702     0.499299      122.735 
0.000702573      7.41989      107.409 
0.000561743     0.210000      180.000 
0.000609956      3.15014      89.4543 
0.000790816     0.958593      69.8637 
0.000429826     0.582495      101.889 
0.000670273      7.46029      115.741 
0.000217921      2.08279      101.634 
7.31883e-05      13.0686      115.859 
0.000218754      4.03843      116.946 
0.000178559      5.63848      114.520 
0.000321010      7.59924      107.934 
0.000272380      13.0817      115.977 
0.000647873      3.43313      95.0131 
0.000645005      3.36442      98.2024 
0.000579361      10.2376      109.338 
0.000673283      8.40241      106.170 
0.000200846     0.636396      45.0000 
0.000622709      9.84462      112.580 
0.000180459      13.0454      115.033 
0.000286651      6.45384      110.120 
0.000276453      8.27831      111.917 
0.000242578      5.33131      111.801 
0.000550056      8.61350      116.922 
7.74643e-05     0.150000     -126.870 
0.000142404      4.20193      118.578 
0.000172110      5.62378      114.925 
0.000543232      1.09037      82.0928 
0.000115416      2.38137      109.120 
0.000422407      4.49690      104.685 
0.000281973      6.06801      114.538 
0.000213285      9.13642      112.186 
1.95950e-05      1.92585      108.153 
7.39637e-05      3.00734      94.0042 
0.000235038      3.93549      113.829 
5.58808e-05      2.11729      110.746 
0.000125114      12.9745      115.913 
0.000580231      2.34077      91.4688 
0.000280302     0.615549      46.9749 
7.24207e-05      3.60100      100.561 
9.14128e-05      8.38305      104.931 
0.000201696      8.26716      111.724 
0.000524578      10.1356      112.998 
3.66455e-05      9.89118      110.414 
0.000571435      3.27495      86.8493 
0.000336262     0.576281      128.660 
0.000119242     0.152971     -101.310 
5.28366e-05     0.930484      69.2277 
0.000219232     0.764853      115.560 
0.000335428      2.41961      109.558 
6.86678e-05      9.88075      110.251 
6.86382e-05      8.37537      104.733 
0.000131157      11.1718      118.905 
1.74147e-05     0.189737     -18.4349 
0.000437618      8.89630      117.516 
9.23271e-05      2.10685      109.983 
0.000278590      2.04198      100.154 
1.73173e-05     0.930484      110.772 
0.000423583      3.51551      117.440 
0.000182830      3.59562      100.091 
2.87444e-05      3.00958      94.5739 
0.000467648      11.1529      118.082 
0.000321903      6.91388      112.448 
0.000140285      6.03925      112.489 
0.000251728      2.97741      94.0445 
0.000420064      8.40439      104.681 
0.000178786      3.69986      108.435 
0.000238604      13.0949      116.095 
4.79575e-05      7.04770      112.526 
0.000345142      7.41097      107.188 
0.000104096     0.804984      116.565 
0.000158264      9.85261      110.311 
0.000379655      1.68668      128.501 
0.000194431      2.11558      108.178 
0.000143152      2.88062      88.8065 
0.000448480     0.912414      136.332 
0.000162730      6.46422      110.369 
6.00545e-05      2.00552      111.961 
0.000289695     0.150000     -90.0000 
0.000233619      5.17576      105.809 
5.96156e-05      9.32440      116.565 
0.000148236      8.32623      100.379 
0.000137762      13.0797      114.096 
0.000249440      11.1449      120.223 
6.94183e-05     0.152971      11.3099 
0.000264862      6.05562      114.280 
0.000158685      9.12513      112.011 
4.46697e-05     0.637809      48.8141 
0.000158808      7.03626      112.300 
2.92416e-05      11.1601      119.114 
0.000215600      3.76198      103.371 
0.000217613      10.3862      110.634 
0.000156117      11.1339      119.190 
6.41117e-05     0.403609      41.9872 
0.000202516     0.558032      126.254 
0.000140066      10.0279      107.947 
0.000328735      8.14764      99.3236 
9.08051e-05     0.295466      66.0375 
0.000176287      3.70752      95.5722 
0.000153642      8.43464      111.272 
0.000112129      3.39888      110.674 
7.42335e-05      9.35125      116.483 
0.000159532      2.43647      99.9262 
7.37984e-05      8.36118      100.544 
6.06468e-05      5.60936      115.332 
7.35225e-05      13.0523      114.150 
3.72911e-05      5.34253      112.100 
0.000109281      12.7072      115.597 
9.63472e-05      7.38865      105.786 
0.000145826      8.91020      117.687 
0.000106385      5.99467      120.029 
4.76343e-05      7.44731      115.533 
3.53439e-05      10.2528      110.556 
8.19608e-05      11.1600      120.356 
1.21628e-05      4.43615      101.310 
3.48758e-05      11.1224      119.400 
3.47996e-05      4.44213      101.689 
4.60720e-05      8.47350      111.387 
3.45431e-05     0.210000      0.00000 
2.28051e-05      11.1407      118.290 
1.13986e-05     0.150000     -53.1301 
1.12883e-05      8.82046      118.657 
