! Center RA: 12 21 31.69052,  Dec: +28 13 58.50019 (2000.0)
! Established model.
! Flux (Jy) Radius (mas)  Theta (deg)  Major FWHM (mas)  Axial ratio   Phi (deg) T \
! Freq (Hz)     SpecIndex
  0.105315      0.00000      0.00000 
 0.0177760    0.0202604      180.000 
0.00328410    0.0202604     -90.0000 
0.00108264    0.0286526      135.000 
0.000688111    0.0446338      116.996 
0.00130640    0.0633577      108.650 
0.00160697    0.0397705     -90.0000 
0.00210338    0.0828082      104.162 
0.000907269    0.0633577     -71.3505 
0.00250484    0.0600310     -90.0000 
0.00516662     0.101837      101.476 
0.00416691    0.0802914     -90.0000 
0.00113526      2.93974      99.4022 
0.000675645     0.120062      90.0000 
0.00585551     0.140322      90.0000 
0.00269908    0.0896014     -153.650 
0.000813957    0.0720098     -146.476 
0.00403555      2.91975      99.4672 
0.00264513    0.0848966     -135.000 
0.000733847      2.90306      99.9128 
0.00381816     0.141777      98.2159 
0.000173831      2.85135      100.923 
0.000668954      2.83598      101.384 
0.00136677      2.59107      105.211 
0.00102771      2.82022      101.869 
0.00383382      2.93650      99.0122 
0.00188843    0.0720098     -123.524 
0.00124933     0.161111      97.2243 
0.00392187      2.57152      105.330 
0.000136132     0.145849     -164.176 
0.000383646     0.164706     -166.027 
0.000629777    0.0633577     -108.650 
0.000920436      2.82446      102.271 
0.00164524      2.93339      98.6214 
0.000729766     0.164706      103.973 
0.000567842     0.184432     -167.547 
0.00143951     0.322315      119.728 
0.00238483    0.0828082     -75.8378 
0.00199158      2.95268      98.5646 
0.00361935     0.332828      122.759 
0.00279466     0.204262     -168.773 
0.00794509     0.890999      134.079 
0.00324617      2.95577      98.9530 
0.00235988    0.0896014     -63.6495 
-0.00197902      1.33505      81.3689 
0.00106991     0.121759      99.5784 
0.00112200      2.56644      104.910 
7.62839e-05      2.84005      101.785 
-0.00148908      5.07847      139.470 
0.00190465      4.71708      140.506 
6.86910e-05      2.85511      101.307 
0.000750983     0.100252     -53.2159 
0.00113440     0.344213      125.596 
0.00101458     0.220795     -174.735 
0.000190907      2.87498      101.228 
0.000984494      2.95899      99.3405 
0.00222033     0.972963     -80.5449 
6.16487e-05      4.69582      79.6992 
0.000912527      6.55403      98.5995 
0.00319444      4.40326      109.917 
0.000234912      2.89485      101.150 
0.000468715      2.04069      88.8833 
0.00141739      1.10008      117.019 
0.000753526      4.69237      79.9336 
0.000226447     0.751254      25.1828 
0.000697776      2.54686      105.027 
0.00152949      2.02093      88.2978 
0.000366363      2.91400      101.076 
0.00111175     0.100252     -36.7841 
0.000832961      2.04812      54.1378 
-0.000791653      5.07583      139.154 
0.00408950      4.52038      89.7432 
0.000431290     0.769637      24.5410 
0.000241338      2.93388      101.000 
0.000769887     0.355922      128.150 
0.000469337      4.68887      80.1774 
-0.000335660      4.08043      151.927 
0.000720214      3.17527      154.240 
0.000269028      4.63993      136.402 
0.000518470      3.26492      99.5251 
0.00192995     0.223431     -169.747 
0.000180003      4.80583      144.655 
-0.000594340      1.33216      82.2305 
0.00131766      2.06006      53.6811 
0.00167087     0.429314      152.181 
4.63675e-05      6.55709      98.7746 
0.000812575      3.88824      53.3645 
0.000438232     0.438758      149.927 
-0.000173287      2.38703      94.3269 
4.53467e-05      6.53399      98.6261 
0.000885022      3.26821      99.8624 
0.000589410      4.27838      65.7141 
0.000339296      1.10943      117.952 
0.000669067      6.53706      98.8017 
4.36226e-05      3.15308      103.950 
-0.000282442      4.09765      152.055 
0.000127746      1.86288      93.0710 
-0.000286419      5.06108      139.010 
0.000201081     0.788112      23.9293 
0.000160437      3.14825      103.592 
0.000950767      4.19813      141.379 
0.000833429      1.86194      92.4715 
0.000591282     0.368782      130.627 
0.000764464      1.11816      116.548 
0.00185016      4.23085      63.9167 
0.000257925      2.00068      88.2806 
0.00131877      2.38067      79.3559 
0.00101552     0.466502     -120.980 
0.000754766      4.92923      76.8629 
0.000735074      3.25180      100.275 
3.87322e-05      4.70670      148.203 
0.000367800     0.690733     -67.9212 
-0.000134835      2.38559      93.8416 
0.000295225      4.58982      152.207 
0.000387273      4.33509      48.3681 
0.00166284     0.107434     -21.7271 
3.74577e-05      2.08794      53.5790 
0.000269947     0.814232      24.6756 
0.000211446      3.16795      103.506 
0.000282736      2.89558      95.9499 
0.000393508      4.27039      65.9527 
0.000490556      2.22378      52.3065 
0.00173001      4.57191      152.089 
0.000685484      2.55199      105.450 
0.000667387      3.89991      53.1345 
0.00255228     0.664707     -68.8232 
0.00145503      3.23630      100.690 
0.00445085      1.44365      30.8310 
0.000851677      3.58545      51.3383 
0.000342185      6.54008      98.9706 
0.00181068      2.87543      95.9918 
3.29102e-05      1.98118      88.2636 
0.000273328      4.82237      144.794 
0.000441178     0.459977     -124.364 
0.000262755      1.98190      87.6782 
0.000800457      4.31997      48.1896 
0.000834357    0.0896014     -26.3505 
3.18697e-05      4.73495      79.7853 
0.00171015      4.92466      77.0924 
0.00209936     0.449253     -122.310 
0.000248039      3.16345      103.163 
0.000286198      1.88143      92.4459 
-3.04458e-05      4.11556      152.187 
5.94210e-05      1.86118      91.8484 
8.71529e-05      4.75489      79.8286 
0.00115545      4.20375      64.0433 
0.000642983      1.53343      97.5076 
0.000283680      4.19457      140.998 
0.000422743      6.52006      98.9983 
0.00260824     0.420241      154.625 
0.000191929      1.24064      20.7588 
0.000133548      4.77410      79.8699 
-0.000100836      2.38436      93.3739 
0.000771776      1.38775      105.043 
0.000665252      2.25220      52.2138 
0.000775289      1.25293      19.5961 
0.000421979     0.372066      126.223 
0.000501041      2.91441      140.852 
0.00186159      3.75225      58.5096 
0.000608022      3.22010      101.098 
0.000169073      1.98278      87.1149 
0.00103658      2.22270      74.3309 
9.71463e-05      4.71741      147.994 
0.000194193     0.107434      111.727 
0.00101246      4.21266      63.7955 
2.42922e-05      4.79404      79.9125 
0.000259515      4.28890      66.0630 
0.000837315      4.18777      96.5851 
4.55099e-05      4.70024      147.863 
0.000131397      4.27352      144.527 
0.00234094      7.14014      94.3396 
0.000934177      3.23998      101.029 
0.000351977      1.53610      98.2291 
0.000622810      4.42923      110.074 
-2.21931e-05      2.36414      93.4028 
0.000770748      1.73386      50.6199 
0.000205710      1.98391      86.5305 
8.45157e-05      3.18245      103.083 
0.00118112      1.40660      104.837 
0.000126844      4.72778      147.793 
0.000257924      6.52326      99.1741 
0.000226697      1.90168      92.4198 
2.16152e-05      2.21732      74.8350 
2.15108e-05      3.22406      101.451 
2.14616e-05      4.70146      140.349 
0.000485582      1.74678      50.1062 
0.000267739      2.81720      137.591 
0.000121232      4.72999      140.317 
0.000118985      2.35794      79.7343 
0.000151394      1.96652      85.3380 
0.000323913      5.09890      78.6868 
0.000138325      4.26180      144.748 
0.000253059      3.66220      55.0041 
0.000378389      1.96827      84.7502 
0.000305162      2.80228      137.311 
0.00102184      2.85603      96.0326 
0.000222794      3.18692      103.424 
0.000492066      4.83364      144.605 
0.00319575      4.56246      152.314 
0.000500719      4.50057      65.0287 
0.00187382      2.50490      109.586 
3.78354e-05      4.28319      55.2687 
0.000987591      1.97022      84.1635 
-0.000199459      2.50796      122.302 
0.000148594      4.71441      140.159 
3.57624e-05      4.29986      55.4225 
0.000471286      2.52042      144.048 
0.000446341      3.64562      54.8215 
0.000318930      6.50400      99.2015 
-0.000810124      2.49719      121.909 
0.000587517     0.227911     -164.728 
5.17140e-05      1.52502      16.7587 
0.000336087      5.11877      78.7312 
0.000427972      1.88521      72.7262 
-0.000230040      2.18421      139.458 
0.00125615      4.49205      65.2630 
9.97826e-05      1.74015      90.0000 
0.000463735      1.54372      16.5499 
0.000165932      4.09951      145.530 
0.000436506      4.51289      94.3198 
0.000218163     0.905663      136.813 
0.00190286      1.71824      50.1912 
9.33550e-05      3.20663      103.340 
0.000862566      1.72001      89.3251 
0.000524866      2.84583      137.565 
0.000208964      2.91162      140.291 
0.000670832      2.26825      52.5273 
0.000349878      3.24392      101.380 
-0.000601151      2.21277      139.401 
7.41010e-05     0.268467     -116.565 
7.62070e-05      4.53082      76.2123 
5.99318e-05      4.18622      63.9264 
0.000207167      1.40155      104.036 
0.000261630     0.922240      139.389 
0.000435673      4.81714      144.465 
0.000655009      3.65689      54.5717 
-0.000975184      4.25714      82.4441 
-0.00125075      2.48654      121.512 
0.00176358     0.411965      157.171 
7.16381e-05      4.52621      76.4522 
0.000305676      1.92192      92.3943 
0.000699196      2.53624      144.307 
0.000257721      4.54002      89.4981 
0.000223260      4.67028      137.084 
9.65038e-05     0.286050     -114.817 
1.43723e-05      3.22193      102.920 
0.000406619      4.47434      65.1584 
0.000576065      1.42121      103.838 
-0.00176041      4.25462      82.7045 
2.76490e-05      4.71065      147.662 
0.00110590     0.924874      141.159 
0.000122451     0.476838     -122.990 
0.000226109      6.50727      99.3776 
1.38188e-05      3.22635      103.257 
0.000409690      4.08808      145.764 
0.000118397      4.50652      76.3918 
-0.000533935      2.22997      124.401 
0.000107947      1.24628      18.7186 
-0.000118248      3.85759      141.532 
0.000169344      4.19006      96.8501 
0.000175060      4.72152      147.454 
1.33295e-05      3.23219      102.142 
0.000380445    0.0828082     -14.1622 
0.000270863      4.92018      77.3224 
0.000238376     0.488166     -124.985 
0.000147429      1.98524      85.9468 
0.000122808      3.24797      101.730 
0.000299458      1.98671      85.3855 
2.53315e-05      3.25464      103.860 
3.81222e-05      2.22805      73.8479 
2.52593e-05      2.33445      80.1350 
-5.91316e-05      1.32737      83.9317 
0.000688236      4.33247      76.9265 
-0.000590796      3.85444      141.109 
6.14042e-05     0.313099     -116.626 
0.000181900      1.80878      57.1934 
0.000300620      4.51446      94.5762 
1.25321e-05     0.683639     -69.4366 
0.000146362      1.97230      83.5996 
0.000423196     0.676788     -71.0427 
-2.41935e-05      2.33059      95.4132 
0.000173931      2.21437      73.1985 
6.92300e-05      4.32700      55.3564 
7.02039e-05      2.50770      150.374 
-0.000185976      4.46758      101.363 
5.56016e-05      2.48582      109.742 
0.000257679      4.19516      63.6779 
8.16503e-05     0.377263      122.078 
0.000447856      4.82895      144.270 
2.35929e-05      4.50179      76.6425 
0.000868667     0.516406     -125.538 
0.000239965      2.84669      138.131 
-0.000921919      2.24077      139.332 
0.000155608    0.0896014      116.350 
0.000153362      1.89132      72.1401 
1.17071e-05      2.33107      80.6256 
0.000110109      1.56315      16.3383 
-0.000468127      2.47640      121.128 
-0.000417252      4.29136      138.211 
8.93411e-05      2.59983      75.7472 
1.15102e-05      3.27920      104.119 
0.000664637      1.43625      102.860 
0.000227433      4.70445      147.321 
4.48484e-05      3.25913      100.963 
7.50354e-05      5.13864      78.7754 
0.000417279      4.07671      146.000 
0.000214384      6.40936      98.4356 
8.63082e-05      4.90041      77.2704 
0.000876343      7.14164      94.4957 
0.000437914      4.81251      144.129 
0.000254992      2.52533      150.601 
5.36398e-05      2.89977      99.5330 
6.43372e-05      3.26305      101.313 
0.000495427      2.86181      138.401 
-1.09405e-05      1.32538      84.8026 
-0.000226945      2.53628      138.514 
0.000112938      2.69037      145.592 
-0.000126321      4.48744      101.312 
0.000340754      1.72035      88.6753 
-0.000111702      1.23964      90.0000 
0.000473590      5.28924      144.382 
0.000543526      2.20762      72.0639 
7.13254e-05      4.19252      97.1250 
0.000336552      2.59491      76.1808 
0.000103736      3.26708      101.661 
1.03513e-05      4.23521      48.2535 
6.08769e-05      2.89648      99.1378 
5.86250e-05      4.33855      55.1363 
0.000473935      6.40642      98.2563 
0.000528882      1.82521      57.5252 
0.000107236      4.19420      48.4814 
-0.000175828      4.50657      101.263 
4.94504e-05      1.69796      31.9973 
2.97822e-05      1.55777      15.6497 
-0.000933526     0.976552      112.881 
0.000113369      1.23993      17.8319 
1.96601e-05     0.100252      126.784 
0.000433304      1.45527      102.689 
6.72882e-05      2.91336      98.6811 
4.55100e-05      3.27108      101.996 
-0.000631074      4.30649      138.391 
0.000189028      3.98060      62.7973 
7.40424e-05      5.16160      78.6051 
0.000521966      2.91048      98.3014 
0.00100106      4.06583      146.228 
1.91578e-05      1.90990      72.3196 
0.000144794      2.52491      144.666 
-0.000279643      2.52114      138.209 
0.000126222      1.70878      32.5735 
8.13946e-05     0.286050     -155.183 
0.000287271     0.912304      142.150 
-2.70751e-05      2.32718      94.4384 
8.80716e-05      1.57729      15.4512 
0.000126481      4.68804      147.193 
-0.000215846      4.52645      101.213 
0.000308700      4.16560      48.5053 
0.000440043      4.51606      94.8229 
7.92783e-05      1.91615      71.7424 
0.000351515      2.54235      150.817 
-0.000296744      4.40410      84.0048 
-0.000129377      4.73075      93.8745 
5.19077e-05      4.65546      136.914 
0.000189165      3.98990      62.5386 
-0.000165523      6.64031      94.4916 
8.67882e-05      6.47777      96.2046 
0.000598476      4.59433      144.929 
0.000383332      1.65745      107.549 
0.000273036      5.16564      78.3848 
1.73382e-05      2.29606      52.4223 
-0.000148746      1.26006      89.0787 
-0.000254844      4.54632      101.163 
0.000580000      7.14326      94.6577 
8.13504e-05      3.40030      53.1276 
0.000208817      1.71977      33.1423 
0.000145361      4.28799      42.9151 
0.000416228      2.18836      71.9005 
-1.69165e-05      4.59172      50.8298 
0.000365576      6.47999      96.3827 
0.000371698     0.527985     -127.261 
-0.000657510      6.66051      94.4779 
0.000368942      6.40354      98.0769 
6.25712e-05     0.670704     -72.6192 
0.000241693      1.72093      88.0010 
-2.48600e-05      4.60406      50.6416 
0.000220100     0.916147      143.862 
7.21329e-05      1.53099      72.5153 
0.000138907      4.32793      77.1878 
3.04907e-05      1.96503      85.9050 
0.000298472      3.99929      62.2810 
-6.32243e-05      4.70925      93.6544 
-4.83077e-05      4.61694      50.4472 
6.89671e-05      1.96255      87.0851 
8.46900e-05      1.55243      14.9296 
0.000203533     0.384685      117.915 
3.96673e-05      4.46618      65.3856 
3.08437e-05     0.313099     -153.374 
-0.000385440      4.32166      138.569 
-0.000279180      1.29053      40.5905 
0.000134683      2.59032      76.5998 
3.79678e-05      1.96368      86.4947 
-0.000108053      4.62987      50.2539 
1.52944e-05      4.65408      136.568 
0.000141701      4.48393      65.4894 
-5.24897e-05      2.32570      93.9407 
-0.000260589      4.56546      101.116 
0.000171126      3.73563      58.3533 
0.000140902      6.18897      97.2370 
-0.000125447      3.85149      140.685 
7.66531e-06      3.29951      102.611 
5.91762e-05      1.54961      72.7320 
4.43020e-05      3.38819      53.4017 
0.000227555      4.54453      152.195 
0.000154140      4.15221      48.7147 
8.08704e-05      4.27473      42.7236 
0.000300181      7.14494      94.8196 
-0.000138480      4.64237      50.0687 
9.48521e-05      4.21468      134.618 
0.000102099      1.41223      102.271 
7.98233e-05      1.70285      33.5150 
1.46427e-05      1.92235      71.1902 
2.21027e-05     0.904347      144.899 
6.55747e-05      4.51781      95.0790 
2.17419e-05      3.30382      102.941 
5.77156e-05      1.54733      14.2047 
7.92866e-05     0.882079      147.013 
-3.60531e-05      4.72947      93.6387 
5.04164e-05      1.74200      87.3582 
6.45437e-05      6.42090      97.8792 
2.14420e-05     0.322315     -150.272 
-3.57325e-05      4.32346      138.934 
7.18422e-06     0.684458     -74.7449 
4.28026e-05      4.53799      95.0563 
2.85497e-05      2.12924      64.4012 
1.42383e-05      1.94809      84.6957 
2.13554e-05      2.93053      98.2442 
7.11005e-06      4.35016      54.9173 
-7.09313e-06      2.30548      93.9753 
-0.00176088      11.1987     -63.0229 
-0.000418180      7.24656     -57.6248 
-0.000141628      1.27600      57.8053 
-0.00131921      6.46601     -13.7766 
-0.000407732      7.33339      33.4299 
-0.000618555      5.68395     -131.146 
0.000653457      12.9103      47.5110 
-0.00137478      1.26571      58.5527 
-0.000510299      9.90527      70.9062 
-0.00188358      7.25703     -57.4947 
0.00116974      8.37808     -84.5212 
-0.000465794      7.21076      130.048 
-0.000727231      7.34968      33.3461 
0.000467401      10.2979      162.481 
0.00124033      10.3826      74.8117 
0.000241850      12.2215     -124.602 
0.000242076      8.37616     -84.6592 
0.000765875      10.5634      22.4862 
0.000639234      7.35230      86.7235 
-0.00106574      11.3418     -62.9399 
-0.000861122      3.83677      153.706 
0.000347572      9.69631     -109.146 
0.000540240      3.50832      9.51672 
-0.000483004      11.2076     -62.9340 
-0.00124477      12.9260     -42.3037 
0.000819471      12.9235      47.4472 
0.000321663      7.42861      118.634 
0.000602353      7.11125      146.352 
-0.000326345      10.4887     -109.609 
0.000944320      12.2166     -124.730 
0.000325845      11.3174     -154.794 
0.000400325      10.2058     -153.333 
-0.000214287      9.89866      71.0170 
0.000107235      6.38129      11.2016 
0.000394630      9.32852      97.8876 
-0.000105630      9.22475      131.396 
0.000105093      10.2531     -154.836 
0.000202189      9.70273     -109.255 
0.000103528      4.87991     -136.165 
0.000103232      9.50066     0.724079 
0.000288861      9.66460      140.709 
0.000726130      12.8557      49.6686 
-0.000720425      10.3730     -141.338 
0.000469359      4.86532     -136.000 
-0.000368814      10.7522     -127.063 
9.74860e-05      11.3091     -154.884 
0.000189418      6.37362      130.038 
0.000190220      7.90865      152.270 
-9.70559e-05      8.18851     -142.540 
-9.66982e-05      5.56145      73.0638 
0.000264309      5.95517     -121.826 
-9.55615e-05      8.35769      96.7339 
-0.000356721      9.48983     -87.3442 
-9.48561e-05      9.91056      71.1645 
0.000183890      7.35117      86.8812 
-9.42788e-05      10.2615     -138.792 
0.000186781      9.68029      140.785 
0.000183519      10.2618     -154.734 
9.36480e-05      9.52068     0.600619 
-0.000269854      7.14332     -88.2362 
0.000265619      3.48834      9.57174 
0.000172345      10.1149      131.632 
0.000261555      10.2786      162.447 
-0.000514564      10.2768     -138.866 
9.16681e-05      10.5447      22.5283 
-9.12166e-05      6.91512      3.81407 
-0.000251650      8.37546      96.5800 
0.000672161      8.27091     -111.418 
-9.00204e-05      8.21646     -142.518 
-0.000587480      11.9222      124.543 
0.000249511      9.30569      97.7812 
8.89722e-05      7.89072      152.202 
-8.89005e-05      11.3329     -63.0278 
-0.000172390      9.91699      71.4197 
-0.000420762      4.30313      104.812 
-0.000254625      7.83646     -23.6244 
8.82878e-05      9.72186     -109.215 
-0.000418663      12.9410     -42.2433 
-0.000330765      9.39430     -117.930 
-0.000167647      6.47086     -13.9508 
0.000414784      12.5865      134.872 
-8.62616e-05      9.86751      51.6668 
-0.000246233      1.25526      59.3417 
0.000246906      10.5369      22.4265 
-0.000245919      8.34901     -106.135 
0.000328877      13.7464      45.1172 
0.000165949      10.2348     -154.788 
-0.000245387      11.9898      132.497 
8.49995e-05      9.32576      97.7643 
-0.000166270      11.3238     -62.8933 
-0.000326122      9.45875      60.3436 
8.46679e-05      3.02400     -154.955 
-0.000165055      7.12307     -88.2312 
-8.39860e-05      8.02710     -8.45582 
-0.000164069      7.58188     -170.590 
0.000241995      6.24386      107.333 
8.32673e-05      6.38526      11.3799 
8.28418e-05      9.09834     -46.8715 
-8.21263e-05      10.3756     -148.639 
8.17551e-05      8.27327     -66.0365 
0.000161449      3.04237     -155.116 
8.16072e-05      10.3877      74.7079 
-0.000159392      9.51103     -87.2279 
-8.04632e-05      10.4266      70.0366 
7.97181e-05      9.67697      140.620 
-7.95538e-05      11.2342     -62.8873 
-7.89914e-05      10.5683      71.4608 
-7.91141e-05      8.23254     -142.604 
-7.87063e-05      10.8255      113.866 
7.87875e-05      4.85130     -135.840 
7.81783e-05      6.40512      11.3442 
-7.77366e-05      12.5687     -42.6773 
7.77236e-05      10.2171     -154.741 
-0.000983664      11.9761      123.557 
-0.000192126      10.3989      70.7976 
0.000991125      9.91254      137.943 
-0.000178535      10.4053      70.6961 
-8.86649e-05      10.4608      71.4975 
-0.000240834      9.51649     -153.544 
0.000321440      12.1509     -40.0575 
8.48052e-05      11.1592     -28.3556 
-0.000235758      10.4732      71.6326 
-0.000242046      10.9758     -24.0890 
-0.000467759      10.3929      70.5538 
0.000561755      3.08474     -57.4465 
0.000831657      11.8232      139.871 
0.000232087      11.1414     -28.4050 
-0.000888393      11.9480      123.529 
-7.58240e-05      7.06519     -87.7296 
-0.000267953      10.9678     -23.9959 
-7.23615e-05      7.08626     -87.5724 
0.000201913      11.2704      152.754 
-0.000137000      10.6829     -58.0057 
0.000135593      12.1354     -40.1190 
-0.000136980      12.0211     -36.2025 
-0.000351321      10.4861      71.7725 
0.000254299      3.91028      149.242 
-6.83492e-05      7.10735     -87.4222 
-6.67509e-05      10.9045     -25.5300 
-0.000297183      11.7386     -39.3319 
0.000179044      7.71328     -47.2077 
0.000126207      10.2348     -76.2062 
-0.000183404      7.12778     -87.2665 
-6.42723e-05      12.0928      135.870 
6.35335e-05      11.2895     -119.972 
-0.000119544      10.6932     -57.9171 
0.000385973      11.2996     -120.061 
0.000225703      6.41294     -97.3479 
-0.000161692      12.0369     -36.1476 
5.92974e-05      8.79170      108.848 
-0.000317712      10.9863     -23.9530 
-0.000269530      10.7190     -122.504 
0.000114130      11.5865      138.219 
0.000207173      8.31908     -111.877 
-0.000155681      9.63401     -86.9058 
-5.60389e-05      7.84075     -24.4090 
-5.56185e-05      9.80619      131.364 
5.53670e-05      9.92760      138.021 
0.000103589      3.93741      149.134 
-0.000256773      12.5149     -42.4096 
-0.000201645      7.14901     -87.1121 
-0.000156356      13.3383     -47.7955 
-0.000151465      9.19549     -154.213 
0.000100502      8.79803      108.968 
0.000342585      10.2515      175.525 
-5.29512e-05      9.94610      129.450 
-5.28714e-05      10.6761     -57.8593 
-0.000339476      9.75860      51.9079 
0.000201864      11.8387      139.934 
0.000193695      11.7653     -132.314 
-9.82064e-05      7.83240     -24.2740 
-9.70333e-05      8.20511     -38.9642 
-9.80554e-05      10.7397     -59.5649 
0.000143279      10.8619     -66.2188 
0.000145257      9.64860     -61.2583 
-4.93871e-05      10.6869     -57.7673 
9.44865e-05      11.3695      150.955 
-4.87118e-05      12.4863     -42.4036 
-0.000140407      13.3658     -47.7897 
4.81036e-05      11.5579      138.227 
-4.80026e-05      9.96118      129.378 
4.77165e-05      7.41234     -32.6620 
9.22622e-05      11.8512      139.862 
-9.23525e-05      11.3107     -50.5969 
-9.14218e-05      10.7081     -122.413 
-9.08400e-05      12.4999     -42.4722 
4.58570e-05      11.8661      139.923 
-4.57986e-05      10.6977     -57.6755 
-4.55657e-05      8.71678     -24.6832 
4.53511e-05      12.5722      135.193 
-4.53099e-05      12.9400     -135.312 
8.93658e-05      11.5773     -56.9156 
4.49658e-05      10.1926     -144.907 
4.49130e-05      10.1373     -154.903 
-4.48159e-05      11.0042     -23.9117 
4.48503e-05      9.63924     -61.3600 
-4.41643e-05      12.0484     -36.2226 
! Tentative model.
! Flux (Jy) Radius (mas)  Theta (deg)  Major FWHM (mas)  Axial ratio   Phi (deg) T \
! Freq (Hz)     SpecIndex
4.82698e-05      11.7785     -132.385 
