! Center RA: 12 21 31.69052,  Dec: +28 13 58.50019 (2000.0)
! Established model.
! Flux (Jy) Radius (mas)  Theta (deg)  Major FWHM (mas)  Axial ratio   Phi (deg) T \
! Freq (Hz)     SpecIndex
 0.0605002      1.52028      90.0000 
 0.0380875      1.50016      89.2262 
0.00894211      1.52042      89.2365 
0.00305209      1.78036      88.7200 
0.00228787      1.58032      90.0000 
0.00344443      1.59995      89.2744 
0.00296773      1.50055      88.4813 
0.00308040      1.78003      89.3478 
0.00417113      1.62021      89.2835 
0.00119710      1.80029      89.3552 
0.00438323      1.48030      88.4605 
0.000606214      1.64047      89.2924 
0.00170976      1.68059      88.6440 
0.000377763      1.74118      88.0242 
0.000185631      1.80018      90.0000 
0.000361439      1.76524      85.4406 
0.00121521      1.81969      90.0000 
0.00142962      1.70009      88.6595 
0.00108017      1.59983      90.0000 
0.000341801      1.76690      84.8100 
0.000632359      1.78901      84.2225 
0.000162623      1.81980      90.6379 
0.000317275      1.83995      90.0000 
0.00171523      1.84006      90.6309 
0.000148831      1.76885      84.1564 
0.000818237      1.79116      83.5776 
0.000335063      1.48098      87.6769 
0.00154825      1.69975      89.3170 
0.00290986      1.46149      87.6459 
0.00132303      1.86032      90.6240 
0.000255688      1.77103      83.5043 
0.000815072      1.76011      91.2947 
0.000781022      1.79345      82.9582 
0.000729854      1.87972      90.0000 
0.000602386      1.68024      89.3091 
0.000606762      1.77334      82.8780 
0.00113947      1.76068      91.9539 
0.000916392      1.87983      90.6175 
0.000640479      1.44054      88.4180 
0.000358569      1.66033      88.6274 
0.000495932      1.79604      82.3168 
0.000499573      1.52675      84.7265 
0.000729264      1.58044      90.7345 
0.000495094      1.77597      82.2294 
0.00132556      1.68119      87.9537 
0.00114322      1.70069      87.9771 
0.00107275      1.78036      91.2800 
0.000925439      1.50122      87.7082 
0.000304030      1.52080      88.5015 
0.000580590      1.81356      83.0367 
0.000617744      1.68203      87.2640 
0.00149931      1.81612      82.4022 
0.00131490      1.80118      91.9099 
0.00337838      2.06459      86.1028 
0.000553936      1.58082      91.4416 
0.000318635      1.50217      86.9361 
0.000529868      2.04383      86.6323 
0.000284351      1.68308      86.6005 
0.000137929      1.46079      88.4399 
7.49527e-05      1.52502      85.4845 
0.000307503      1.44014      89.1939 
0.00166246      1.58145      92.1754 
0.000208688      1.52866      83.9984 
0.000848470      1.92035      89.3955 
6.74450e-05      1.55029      83.3290 
0.000730190      1.41973      90.0000 
0.000131829      1.53091      83.2442 
0.000311975      1.55277      82.5865 
0.000819089      1.80197      92.5538 
0.000355422      1.66285      86.5591 
0.000119573      1.53343      82.4924 
0.000437346      1.55541      81.8738 
0.00132685      1.58235      92.9085 
0.000381383      1.53610      81.7709 
0.00137510      2.18135      92.1094 
0.00117741      1.40022      90.0000 
0.00159185      1.81881      81.7930 
0.00108746      1.92024      90.0000 
0.000636787      1.55840      81.1364 
4.74830e-05      2.18070      91.5775 
0.000416106      1.60095      92.1489 
0.00157851      2.54202      87.7499 
0.000426831      2.99669      101.161 
7.89771e-05      1.93986      89.4016 
0.000600467      1.56153      80.4290 
0.000703558      1.80294      93.1732 
0.00179138      2.74504      71.2976 
0.000107904      1.64231      87.1977 
0.000275871      3.30675      97.3008 
0.00110727      2.76424      71.4323 
0.000250418      1.41988      89.1824 
0.000314040      1.78271      93.2093 
0.00108846      2.95472      77.0861 
6.46921e-05      1.64144      87.9041 
0.000146953      1.66180      87.2306 
0.000887073      2.59781      80.2547 
0.000110982      3.28666      97.3457 
0.00117935      3.42868      94.0159 
9.09874e-05      1.40037      89.1710 
0.00177907      3.92769      72.2124 
0.000390886      1.95705      97.6237 
0.000216401      1.56503      79.6976 
0.000429460      1.92035      90.6045 
0.000654511      2.66300      104.357 
0.000662156      1.34034      89.1339 
0.000495125      2.82867      77.3426 
0.000712683      4.58819      73.5449 
0.000292453      1.98941      74.8472 
4.98380e-05      1.95984      98.2108 
0.000673185      2.80039      78.0457 
0.00157295      4.10601      64.3107 
0.000940349      3.15447      77.5540 
0.000319852      1.60703      106.633 
6.23066e-05      2.16375      76.0939 
8.64040e-05      2.00825      74.9927 
0.000550164      3.01824      80.8445 
0.000957981      4.58270      73.7788 
0.000165749      3.60467      96.6945 
0.000491888      2.60937      85.1666 
0.000277418      2.00309      75.5525 
0.000145753      1.97989      98.1270 
0.000196122      3.02984      94.5456 
0.000893670      1.32009      89.1206 
0.000662369      4.10517      70.9457 
0.000556490      3.62250      96.3389 
0.000464634      2.65805      103.934 
0.000268390      1.59433      107.531 
0.000510503      2.46111      97.4630 
0.000134400      1.79875      81.7009 
5.03773e-05      1.92065      91.1865 
0.000397480      1.56121      92.2037 
0.000202497      2.59032      76.5998 
0.000133354      1.43990      99.5998 
0.000476283      3.91467      71.8394 
0.000976128      1.60032      108.197 
0.000201519      2.08620      85.6060 
0.000143546      1.99995      98.0450 
0.000140003      3.03145      94.9132 
0.000121709      1.82242      93.1393 
0.000203564      3.60237      96.3745 
1.49438e-05      1.80418      93.8157 
0.000525742      3.93393      71.9314 
7.83314e-05      2.52051      88.6353 
4.20143e-05      4.09861      71.2134 
0.000594620      3.91607      80.2922 
-0.000846618      3.24411      92.8240 
0.000701884      4.11708      71.3009 
0.000297428      4.59585      74.0893 
0.000326007      2.59491      76.1808 
0.000357438      3.17793      77.2731 
0.000488515      2.82446      77.7288 
0.000236233      3.01308      95.3301 
0.000162426      2.01927      97.9675 
6.03940e-05      3.62032      96.0202 
1.25112e-05      2.59458      80.6793 
-0.000848505      3.58149      91.5968 
4.66411e-05      2.65324      103.510 
6.57249e-05      1.44328      100.363 
0.000291589      3.60017      96.0540 
0.000188964      3.30424      96.9523 
-0.000293465      2.52494      106.577 
0.000115042      2.62520      102.765 
1.15445e-05      2.95026      77.4696 
0.000244844      2.58918      85.1288 
0.000106966      4.63270      75.2390 
0.000288328      2.97004      77.5544 
0.000339935      2.48315      97.8681 
3.18389e-05      1.17106      97.8445 
0.000210468      4.08776      64.1876 
0.000265104      2.03934      97.8886 
2.05480e-05      1.93986      90.5984 
0.000275373      1.18867      96.7796 
0.000101715      1.99480      74.2855 
0.000291398      4.63771      75.0059 
8.93634e-05      3.92080      71.5685 
2.94037e-05      1.34078      88.3002 
6.31734e-05      1.96012      90.5922 
-0.000567675      2.66020      90.4364 
7.87503e-05      3.03824      80.9053 
0.000304118      3.59817      95.7451 
0.000111219      1.42792      101.304 
2.76150e-05      3.61833      95.7130 
5.40246e-05      3.91270      80.5846 
0.000116583      2.99487      95.7520 
0.000158648      1.34153      87.4353 
0.000155619      3.89945      79.9594 
0.000192120      4.02953      68.1451 
0.000123702      2.58760      85.5592 
9.15784e-06      1.32053      88.2742 
0.000159554      3.44815      93.9932 
-0.000242172      2.51121      107.135 
0.000106731      3.32197      96.5632 
6.96973e-05      1.53913      81.0245 
-0.000367532      4.16924      65.0354 
2.56204e-05      1.98073      73.5835 
0.000340315      4.11483      64.0564 
2.47869e-05      4.57457      73.2296 
8.18829e-05      4.65230      75.3025 
4.72898e-05      2.54133      88.1895 
-0.000178614      4.21266      63.7955 
0.000210633      2.60780      85.5937 
-0.000284984      2.04236      104.164 
3.23072e-05      3.86764      79.2656 
-0.000244247      4.23948      69.8523 
0.000129958      2.97749      96.1632 
-8.40455e-05      2.97986      90.3896 
0.000100576      3.94002      71.6617 
0.000114407      1.74251      99.2433 
-0.000272408      3.09272      70.7473 
0.000136709      3.84773      79.2094 
1.56642e-05      2.15944      74.4183 
0.000151159      4.12986      71.6572 
0.000121205      3.61637      95.3936 
-0.000105214      3.25180      79.7247 
3.02649e-05      4.58046      72.9870 
7.77141e-06      2.56547      81.9291 
4.51537e-05      3.89610      80.2420 
4.46322e-05      2.14551      73.7518 
-2.28361e-05      3.25548      79.3739 
-8.13179e-05      2.34809      66.9336 
2.96044e-05      2.56828      81.4982 
7.50685e-06      2.45865      97.0122 
1.47172e-05      1.98027      90.0000 
2.94896e-05      2.04222      98.4517 
3.66986e-05      2.43613      96.5975 
1.45790e-05      2.66919      107.895 
-0.000739052      5.51653      40.7416 
-0.000438068      12.4324     -143.702 
-9.30582e-05      5.50176      40.8742 
-0.000972368      3.28691     -21.4103 
-0.000271379      7.07900     -72.7405 
0.000745482      11.1138     -131.058 
-0.000587728      4.27838      65.7141 
0.000551006      13.3794      134.396 
0.000712402      7.27125      96.7921 
0.000676487     0.980766     -69.7210 
-0.000549358      5.48852      40.7143 
0.000407047      1.88833      174.527 
-0.000555618      7.09763     -72.7873 
-0.000526294      12.4488     -143.757 
-0.000664644      8.54222     -68.0023 
8.47999e-05      7.54913     -12.8593 
-0.000671644      7.38884     -2.79412 
0.000510571      6.61371      59.8713 
0.000796411      7.57324     -12.9691 
0.000857845      6.84745     -122.114 
-0.000234614      4.77089     -96.5024 
8.10946e-05      13.3652      134.334 
0.000157269      8.07278      76.8254 
-0.000575328      9.82073      129.298 
0.000362323      7.67266     -36.0966 
-0.000220209      3.70001      162.057 
0.000229150      8.27191      106.290 
-0.000434438      9.08511     -97.8423 
0.000696395      10.6931     -73.2576 
0.000296202      13.3797      134.273 
-7.65853e-05      12.3175      45.1975 
-0.000353298      9.80531     -40.2850 
0.000590949      10.9125     -41.2838 
-0.000290447      4.28072      66.3108 
-0.000347185      7.44591      107.023 
-0.000476912      10.1344      123.815 
-0.000280832      7.64946     -50.9443 
0.000611409      6.15456     -46.7094 
0.000476539      8.09178      76.8568 
-0.000275301      5.35191      39.9948 
-0.000279312      8.86063     -90.7764 
-0.000277891      12.3318      45.1307 
0.000544807      13.0998     -51.1362 
-0.000142973      6.78185     -157.820 
0.000280791      3.06171     -1.86798 
0.000470266      11.1157     -130.916 
-0.000469461      11.4866     -130.764 
-7.19358e-05      9.34736      10.8508 
0.000400388      12.0095      43.7190 
-0.000139021      10.2205      7.19546 
0.000114584      11.4977      59.2421 
-0.000204098      7.06830      101.755 
-0.000335248      7.10343     -72.6369 
0.000199872      7.96835     -137.339 
-0.000452728      14.1436     -134.198 
0.000139578      12.8343     -43.0430 
6.99241e-05      11.0931     -131.564 
-0.000199617      9.82204     -147.898 
-0.000200595      12.4372     -143.830 
-6.93292e-05      4.76863     -96.2605 
0.000266296      13.3939      134.335 
-0.000134288      7.78688      79.6408 
-0.000290726      7.42811      22.1421 
-0.000133967      7.15689      64.5070 
-0.000273134      4.28475      171.683 
-0.000299066      4.03488      162.108 
0.000260086      4.13905      167.445 
0.000195237      7.71302     -118.161 
-0.000197662      4.28610      67.4982 
0.000257501      6.34112      4.70396 
-0.000320755      13.0881     -140.642 
0.000323101      12.8777     -42.9859 
-0.000129646      4.52492     -66.8363 
-0.000193575      9.93067      7.75600 
-0.000194706      8.98414     -23.4839 
0.000193596      13.3698     -40.9354 
-0.000193339      6.75545     -157.914 
0.000256853      3.06113     -1.50300 
0.000128156      11.4699      59.2773 
-0.000126810      3.30578     -21.2822 
6.48131e-05      8.29684      106.380 
-6.46289e-05      9.80506      129.373 
0.000189504      8.89432     -19.5738 
-6.39464e-05      7.37901     -10.3043 
-6.38719e-05      10.0380     -170.482 
6.36351e-05      4.54201     -1.77040 
0.000125930      8.23294      156.676 
-0.000124736      7.69351     -14.1420 
-6.30540e-05      7.67796     -50.9222 
-6.27609e-05      8.43783      174.560 
-6.27346e-05      7.36519      35.7175 
-6.24031e-05      10.0033     -3.89699 
-6.23258e-05      10.6076      15.5306 
6.21902e-05      9.67647     -65.7127 
6.22200e-05      11.1200     -131.720 
-6.20366e-05      9.44081      101.238 
6.19623e-05      7.02439     -13.1648 
6.19306e-05      8.60904      142.173 
-6.19904e-05      7.39894     -10.2763 
-6.18279e-05      12.3461      45.0640 
-6.15562e-05      7.64727      63.4324 
-0.000643478      10.1641      1.57799 
0.000592971      8.08777     -169.025 
0.000401488      11.7726     -55.3102 
0.000143953      3.42832     -82.6308 
-0.000395280      8.69995      131.458 
0.000138453      3.43098     -82.2952 
0.000139009      8.03620      99.7411 
0.000371551      8.20662      156.745 
-0.000355354      7.10049      131.234 
0.000133428      8.28011      105.981 
0.000910143      9.62872     -19.7878 
-0.000684711      12.4099     -38.5878 
0.000130140      11.6433      43.3992 
0.000189103      9.32155     -1.10703 
0.000348881      8.01294      99.6282 
6.52647e-05      8.10767     -169.052 
-0.000178925      5.53031      46.0280 
-0.000279150      11.3563      137.855 
0.000381839      12.3039     -45.3953 
-0.000542595      9.09190      164.956 
-6.38636e-05      9.15959      101.972 
0.000419646      3.45382     -82.0072 
-0.000364324      10.1809     -37.6579 
-0.000434550      5.25329     -28.4210 
0.000223935      10.3240     -72.7583 
-0.000501417      9.69695      59.0963 
0.000180732      8.28571      106.116 
-0.000799777      10.9493     -24.0390 
-0.000233610      8.82963      103.090 
0.000235029      5.32067     -19.9990 
-6.21336e-05      2.78922     -22.3424 
0.000222062      10.0685      137.979 
6.13365e-05      4.53435     -11.7060 
0.000279178      11.6182     -54.1767 
-0.000394204      9.03991     -43.4764 
0.000270933      6.56565      153.983 
-0.000116687      9.17472      129.694 
5.93486e-05      4.00980     -71.3820 
-0.000164901      2.79670     -22.7121 
0.000112254      8.94570     -84.2277 
0.000320003      11.8973      147.914 
-0.000109955      6.88274      48.0625 
0.000157255      7.98105     -164.742 
-0.000109754      8.90932      129.443 
-0.000149285      8.64511      5.84371 
-0.000109016      7.48427      97.5240 
-0.000102712     0.116465      148.973 
5.51690e-05      8.65785      139.873 
-0.000108789      10.3906      54.3219 
0.000104130      8.29136      106.250 
5.47777e-05      5.78141     -100.764 
5.42119e-05      7.05990      89.5128 
-0.000476719      12.5595      125.536 
-0.000145060      7.18359      64.4360 
0.000333099      6.98020     -124.966 
0.000104061      6.75793     -28.8389 
-0.000189806      12.6382     -131.536 
-0.000103455      9.14658      162.438 
5.31851e-05      8.91354     -136.637 
0.000149929      11.3552      118.282 
-0.000147449      10.0026     -83.5691 
0.000403553      6.90085      89.0031 
-0.000228402      9.02717     -103.974 
-0.000277255      8.62697      5.98631 
5.25857e-05      9.34180     -1.10463 
0.000199913      11.9252      147.883 
-0.000101179      9.16227      129.600 
0.000183690      11.7778     -55.4473 
0.000276403      5.30234     -20.0711 
-0.000136217      7.19047      128.339 
-5.17321e-05      9.13978      101.998 
-0.000266282      10.2403      176.416 
-0.000340328      6.80093     -129.870 
0.000172779      8.24119    -0.975619 
-5.11163e-05      10.3788      54.4127 
-9.72445e-05      2.40834      168.498 
0.000475609      12.8044     -43.2926 
-0.000138619      6.91135      48.0498 
-0.000184225      8.89646      129.342 
-5.03122e-05      3.81093     -112.530 
-0.000226366      7.48164      97.3702 
0.000138105      8.94776     -84.0986 
4.98322e-05      12.9785     -137.310 
4.98645e-05      10.5479      29.2858 
-0.000263809      7.44022      106.880 
9.28709e-05      5.78523     -100.962 
-0.000432776      10.4065      54.3845 
9.45138e-05      11.0203      28.9822 
-4.90119e-05      9.02248     -103.854 
-4.89102e-05      5.06710     -95.8904 
-4.88089e-05      6.15580      23.1491 
-9.03162e-05      10.2165     -176.745 
0.000357335      13.0071     -137.305 
0.000318321      11.1137     -157.126 
-0.000131848      2.77871     -22.8674 
0.000137229      11.5899     -54.1993 
-0.000176891      8.80549      102.996 
0.000290415      11.7414      51.4323 
0.000158171      11.0521      42.8732 
-0.000135895      12.4271      47.3467 
8.71088e-05      8.26625      106.155 
9.01127e-05      8.35925      138.490 
0.000135708      13.3359      135.303 
-0.000363210      9.09718      164.832 
-8.97001e-05      10.6894      33.2427 
8.95318e-05      10.5309      29.3377 
4.69861e-05      7.12726     -31.4593 
-0.000249383      12.2324     -37.2270 
0.000754412      7.95550      51.4297 
4.66265e-05      3.79073     -82.7216 
0.000208148      7.96223     -164.705 
-0.000297122      9.09911     -97.5775 
4.61673e-05      4.19767      167.623 
0.000794207      11.9080      147.831 
4.61007e-05      8.67335      139.959 
4.59959e-05      6.74084     -28.9189 
-0.000125318      7.32469     -143.662 
-0.000167275      6.12697     -7.12676 
-8.68731e-05      9.79434      10.8278 
4.55576e-05      4.81957      60.1378 
4.54607e-05      7.04039      89.5115 
-4.53680e-05      9.98495     -139.386 
0.000434374      8.30106     -30.3944 
4.52627e-05      10.0541      137.904 
8.79665e-05      12.5190      47.9786 
0.000242840      13.0064     -48.4919 
-0.000123440      6.17375      23.0779 
-0.000571613      10.7290      122.980 
-0.000125917      9.82244      161.234 
-0.000458511      10.0003     -139.461 
-0.000163077      12.4265      47.2171 
0.000161791      3.79325     -82.4293 
4.40326e-05      4.03525     -71.2113 
-0.000321991      10.6673      33.4508 
0.000315423      4.17788      167.564 
-4.36898e-05      10.3489     -26.2696 
-0.000121621      9.07262     -11.1835 
0.000122892      10.3180     -72.8657 
-0.000120634      8.77220     -108.065 
-0.000164259      9.82361      129.131 
-0.000189624      10.6691     -110.404 
4.31519e-05      7.44367     -110.772 
0.000115046      9.58808      108.361 
-0.000111167      11.9880      142.728 
-4.18927e-05      7.78447      94.5669 
4.18936e-05      7.80931      27.2865 
0.000317513      7.45088     -110.917 
0.000249893      10.8026     -28.6533 
-4.14713e-05      10.1349      131.079 
0.000114990      3.75141     -158.084 
0.000115591      11.5785     -54.2776 
-0.000767207      10.4282      69.6886 
0.000620705      12.5466      47.9720 
8.06168e-05      13.3221      135.363 
0.000954557      11.1216     -157.030 
-0.000312826      11.4325     -33.8027 
0.000139984      4.75878     -5.06601 
-4.08765e-05      4.77555     -96.9765 
-0.000528960      8.80238      105.552 
0.000118070      10.1819     -42.0547 
4.05474e-05      8.18703      140.750 
0.000357859      6.99140     -125.097 
-7.32590e-05      10.3670     -26.2201 
-0.000149496      5.26261     -28.6079 
-0.000215902      10.0162     -126.801 
7.48643e-05      8.57410     -43.2978 
4.00510e-05      10.5132      29.3918 
-0.000151000      8.83942     -158.778 
-0.000179194      10.1221      130.996 
0.000107044      8.50259     -59.1524 
0.000247622      7.73088     -118.090 
3.94962e-05      8.17139      138.075 
7.37715e-05      4.71872      162.490 
-7.32063e-05      7.50173      97.3504 
-0.000182688      12.9169      39.4084 
-3.88788e-05      8.80095      102.868 
0.000319712      12.7763     -43.2865 
0.000239947      13.0220     -137.366 
-6.94260e-05      12.2281     -37.3572 
-0.000486412      9.58044      82.5655 
-0.000143096      10.6951     -159.532 
-0.000178486      6.73426     -146.877 
-3.82726e-05      10.7599      149.382 
-0.000207682      10.9678     -23.9959 
7.37143e-05      10.1206     -144.896 
-3.77496e-05      9.79559      129.118 
-6.94967e-05      9.80326      161.196 
-0.000385864      8.78120      102.897 
-0.000239719      12.2250     -37.4882 
-0.000104271      10.1648     -37.7277 
-0.000140521      12.6014      39.5273 
0.000135314      13.7982     -47.1730 
0.000323075      10.1669     -42.1312 
0.000136295      11.2007     -130.002 
7.19577e-05      10.4955      29.4461 
-0.000464325      14.1577     -134.257 
-0.000238798      9.81131      129.043 
0.000360312      6.90124      88.8349 
-6.87009e-05      4.77806     -97.2177 
-3.68227e-05      6.58818     -52.3992 
0.000149491      10.2302     -122.789 
-0.000306495      9.06855     -43.4812 
0.000188742      10.3123     -72.9693 
0.000197153      13.3083      135.304 
-7.01349e-05      12.0181      40.3429 
0.000580459      13.0840     -51.0805 
3.62706e-05      5.28332     -20.1465 
-0.000126107      3.99246      142.322 
3.62749e-05      7.44970      39.1132 
-5.56192e-05      5.83819     -22.3457 
-0.000227889      10.0222     -60.4696 
0.000242966      8.94265     -121.557 
3.57444e-05      4.07330     -134.209 
-0.00126661      11.7316     -29.4049 
-0.000103710      9.07234      164.922 
6.81550e-05      3.47886     -81.4032 
-0.000157945      12.4471      38.2137 
6.86722e-05      7.96948      26.3745 
-3.55005e-05      10.0003     -83.6845 
-0.000157726      12.2213     -37.6214 
0.000101085      10.0475      22.8384 
-3.52277e-05      3.31054     -106.134 
-6.14580e-05      11.8856      131.658 
-0.000128372      8.64712      5.97231 
-0.000649196      6.52972     -99.5186 
0.000103018      14.1989      45.4561 
-3.50917e-05      6.14460     -6.91586 
-6.02992e-05      7.62983      63.3669 
-6.66556e-05      8.91156      129.263 
0.000245597      9.72799      92.3563 
6.77763e-05      8.26145    -0.973227 
3.48793e-05      8.94987     -83.9696 
-3.47143e-05      9.77065      10.7335 
0.000487955      9.65394     -19.8617 
0.000354404      10.1815     -173.683 
0.000180202      11.7121      46.1084 
-3.45090e-05      6.19239      23.0044 
-6.44916e-05      7.17792      128.212 
-9.77880e-05      8.69241     -113.026 
-3.41242e-05      5.85694     -22.2703 
0.000126674      11.5402     -53.0295 
-0.000158106      10.5738     -105.691 
-0.000226085      12.5481      125.464 
0.000127146      3.89269      16.1047 
0.000213895      11.9159      47.1768 
-0.000841019      12.1548      130.664 
6.42956e-05      5.27663     -19.9476 
-6.14506e-05      7.46252      151.855 
3.34363e-05      11.5503     -54.3005 
9.55409e-05      9.28329     -132.904 
0.000155262      9.06072    -0.631111 
0.000214917      10.0399      22.7358 
6.54479e-05      10.2302     -19.8890 
0.000151132      10.1372     -144.962 
0.000337100      11.7461      54.9840 
-0.000302010      7.60954     -142.045 
0.000119202      10.7504     -39.7923 
3.27274e-05      8.15688      137.983 
0.00104091      14.2131      45.3979 
-6.24345e-05      8.77670      102.768 
0.000441468      7.00096     -13.0457 
-0.000124880      9.07763      164.799 
-0.000116094      8.85831     -158.826 
-0.000142966      5.25459     -28.9076 
9.37165e-05      9.78875      106.619 
0.000206025      9.99264     -14.3702 
8.90467e-05      9.65658      52.4890 
-0.000274355      11.3186      149.176 
3.19100e-05      9.50916      152.574 
-3.19238e-05      7.15472     -130.009 
8.91575e-05      6.75870      74.7309 
-0.000305489      10.0040     -126.708 
-0.000236946      7.59897      61.2103 
0.000390718      12.5583     -45.0000 
-0.000463771      13.0703     -140.463 
-0.000273421      8.72326      98.8376 
3.18215e-05      8.28096    -0.970934 
-8.87025e-05      12.9013      39.4655 
-0.000270578      6.66941      122.260 
0.000228767      10.2368     -19.9917 
-6.13104e-05      9.70060      10.4511 
-5.91848e-05      10.3210      54.8633 
-3.12702e-05      7.52987     -132.629 
-3.12669e-05      10.5793     -105.797 
3.11781e-05      10.9272     -41.2163 
-3.11591e-05      12.3270     -140.265 
-0.000257413      12.6042      139.053 
-6.10835e-05      10.4860     -119.353 
-5.99176e-05      11.9537      31.2413 
-0.000198545      10.3275      35.3818 
0.000168501      7.72137     -117.957 
-5.99725e-05      3.68382     -142.948 
0.000231227      11.8128     -122.343 
6.03296e-05      8.30122    -0.968564 
-0.000337700      9.13856      114.431 
-3.06807e-05      8.12551      127.801 
-3.06990e-05      7.45298      151.993 
-0.000104226      4.28773      171.415 
3.04370e-05      10.4609      29.5532 
-5.86294e-05      10.9386      157.421 
8.74410e-05      10.4170      123.569 
-0.000139595      2.01694     -30.3715 
0.000240862      6.87365      147.238 
-3.01914e-05      7.57549      47.8867 
-0.000162866      9.78282      129.026 
-0.000238721      12.3120     -140.207 
-3.00208e-05      12.2373     -37.5635 
-0.000246963      11.9043     -56.0966 
-0.000184397      8.88397      97.8940 
8.44105e-05      8.49260     -59.2655 
0.000166023      7.46981     -110.862 
0.000621967      13.7510      41.9919 
-0.000195273      11.7175     -58.4007 
-8.49439e-05      7.03932     -62.7794 
0.000369952      8.36829     -160.743 
8.43066e-05      8.55848     -3.75025 
-0.000139381      12.2471     -38.8369 
0.000447523      10.4451      123.600 
-8.51043e-05      7.63859      63.2361 
0.000306104      11.1438     -130.924 
-0.000326200      10.6504      33.5109 
0.000189960      10.2962     -45.4724 
-2.95188e-05      12.6240      37.0150 
-0.000147267      6.71730     -146.782 
-0.000231248      10.9467     -45.4444 
-0.000135278      7.09704     -72.2777 
0.000157661      8.81497      121.455 
0.000111506      9.78319      106.510 
8.44598e-05      10.6845     -30.9838 
2.90307e-05      6.04960      158.269 
5.72839e-05      8.32147    -0.966206 
0.000131319      10.2891      22.8793 
-0.000201279      10.5036     -119.299 
0.000319102      13.0566     -51.0933 
-0.000132858      10.0404    -0.342572 
5.61620e-05      11.5443     -53.1703 
-7.99126e-05      7.79981      116.168 
2.85283e-05      10.7929     -28.5590 
2.84196e-05      9.06080     -163.324 
0.000138739      11.0670      42.8018 
0.000329811      10.3245      172.655 
-2.82348e-05      5.33940      39.8344 
-2.82364e-05      9.75120     -168.044 
-0.000258400      11.5855      127.918 
2.82021e-05      5.76998     -101.196 
-0.000107518      8.74020      171.314 
0.000105358      8.29083     -30.2736 
-0.000159733      7.12956     -117.574 
-2.81480e-05      10.1434      46.5167 
-0.000133289      12.4597      44.8048 
5.39640e-05      9.49118      152.517 
-2.79402e-05      7.29462     -146.178 
5.34777e-05      10.1237     -78.4902 
0.000101754      8.41766      48.6574 
0.000127389      9.05501     -163.447 
-2.76883e-05      9.03950      21.6839 
7.95415e-05      4.77997     -5.27831 
2.76525e-05      6.87365     -122.762 
-2.76685e-05      10.0492     -60.4239 
0.000351058      12.2415      127.899 
-0.000463963      3.68402      131.482 
-7.84352e-05      3.69606     -142.697 
0.000225835      9.72718      92.2371 
0.000483268      8.84285     -19.4190 
0.000102694      9.08023    -0.629755 
0.000585231      13.8733      137.569 
0.000130122      8.34098    -0.963946 
-2.73893e-05      10.1088      130.909 
-0.000101480      11.3985     -39.3043 
-5.31569e-05      7.14753     -117.499 
2.72618e-05      8.55723     -3.61990 
0.000173428      10.1538     -145.027 
5.32401e-05      6.86311     -122.625 
0.000194691      8.51999     -90.2675 
-9.95624e-05      9.76729     -128.349 
2.69598e-05      10.1197     -78.6026 
0.000179204      10.4433      29.6080 
5.26876e-05      3.91216      16.0224 
-5.19465e-05      9.05833      21.6366 
-0.000177301      14.1290     -134.255 
-5.22784e-05      9.77102     -168.069 
0.000150661      12.4410      51.5264 
0.000120491      10.2987     -72.8325 
-0.000354802      13.1802     -129.706 
-0.000100924      10.9464      157.323 
7.59034e-05      11.5564     -53.0899 
0.000126312      11.8024     -122.263 
-7.44436e-05      7.77681      55.9021 
-0.000121510      10.0392     -60.5244 
7.34119e-05      13.2939      135.242 
-9.87524e-05      11.9436      31.1613 
-0.000257690      8.00316     -69.9816 
-5.14767e-05      12.8856      39.5228 
-5.11172e-05      9.26733     -49.8149 
2.60737e-05      10.7019     -30.9279 
-5.10693e-05      5.43785     -69.1016 
5.08164e-05      9.72647     -114.932 
-2.58770e-05      9.18812      142.606 
-7.43751e-05      11.7458     -60.0740 
0.000440704      10.1643     -173.561 
-2.57585e-05      12.4252     -38.5317 
-0.000343753      9.57793      82.6812 
-0.000117335      10.3094      54.9554 
0.000168771      8.57795     -3.74173 
-2.56205e-05      11.0204     -36.6616 
-9.87920e-05      8.75767      102.797 
-9.60333e-05      12.4318      38.2693 
-0.000136757      11.3702      30.6693 
9.88031e-05      6.85221     -122.482 
-2.54832e-05      9.72053      10.4295 
0.000438468      9.71795     -114.824 
7.37975e-05      7.08680      95.0176 
-0.000191186      12.7172     -37.7178 
4.88048e-05      7.11366      140.131 
0.000118414      10.3014      170.503 
4.98602e-05      7.47678     -111.002 
4.96100e-05      6.29750     -51.9639 
7.34791e-05      13.7839     -47.1178 
-0.000318553      12.4736      44.7416 
2.51287e-05      10.6915     -30.8348 
-2.51367e-05      9.48315      3.99291 
-0.000318826      9.19241      142.779 
9.67644e-05      8.78349     -21.3633 
2.49376e-05      8.31790     -30.3264 
-0.000272993      11.8406     -50.0698 
0.000184911      10.4718     -54.6403 
0.000139386      8.38963      48.6733 
-0.000226609      11.7072     -58.4820 
0.000212127      12.9917     -137.121 
-0.000271864      8.99934      9.33823 
-9.40146e-05      8.76023      171.334 
2.47455e-05      9.82167      78.3681 
-0.000207472      11.6179      131.510 
0.000165238      10.1038     -78.4673 
-9.31204e-05      8.45611      174.710 
-7.10516e-05      8.87651     -158.871 
-0.000148071      9.08789      21.4254 
2.46145e-05      5.75010     -101.235 
-8.40973e-05      10.3162      35.2935 
4.82141e-05      8.95288     -121.664 
-9.23120e-05      11.3603      30.5847 
-4.66932e-05      8.01547      3.57466 
2.44297e-05      10.1519     -42.2079 
9.49453e-05      9.63560     -19.9011 
9.08624e-05      10.2559     -19.9530 
0.000115385      10.6260     -153.629 
0.000180771      7.01997     -13.0098 
0.000317138      11.0536      156.541 
-0.000113290      8.63292      168.508 
0.000269548      11.7663     -55.5286 
0.000294412      10.3540     -72.2308 
0.000251105      11.7577      54.9031 
-0.000200904      12.6189      139.111 
-0.000117485      12.2163     -37.2845 
0.000220639      8.11546     -78.7711 
0.000314435      11.7916     -122.180 
-0.000158511      13.0249     -139.608 
0.000224265      9.74045      77.7915 
-0.000204513      4.01632      162.022 
0.000160050      11.8801      147.862 
-0.000370146      6.54971     -99.4893 
-7.00241e-05      11.8930     -56.1776 
0.000115101      4.80015     -5.25606 
0.000100249      9.41051      154.307 
-4.74672e-05      12.8706      39.5780 
-4.69277e-05      9.23926     -49.8262 
2.38191e-05      11.2162     -129.936 
-0.000133438      5.26442     -29.1006 
0.000266762      11.3488     -151.356 
-4.52215e-05      10.5132     -119.392 
2.36693e-05      6.68836     -119.168 
9.22811e-05      11.3938     -56.6741 
0.000313145      11.1293     -156.937 
-2.36622e-05      9.46294      4.00145 
8.70841e-05      6.84135     -122.339 
-4.65390e-05      12.3973     -38.5147 
0.000227425      13.4535     -138.011 
-0.000158027      11.3099     -29.3304 
2.35231e-05      9.60570     -150.018 
2.34747e-05      11.3391     -151.446 
2.34342e-05      9.19829      24.9511 
0.000131896      12.8191     -43.2305 
4.59773e-05      6.90166      88.6730 
0.000156979      12.4569      51.5844 
-0.000268530      9.71369      30.8446 
2.33220e-05      8.36124    -0.961611 
-0.000144449      9.71134      155.548 
-6.81378e-05      12.4215      124.635 
-2.32158e-05      12.6362      37.0883 
4.59548e-05      9.94916      107.672 
2.31851e-05      9.11942      56.4472 
-0.000224922      8.35728     -176.293 
-0.000419479      12.7456     -37.7342 
-0.000199122      9.46154      3.87906 
-4.53727e-05      10.4291      18.3307 
9.08693e-05      12.2595     -145.635 
-0.000112011      12.3319      135.264 
6.80376e-05      9.74906     -52.1660 
6.65159e-05      13.1993     -133.464 
-0.000198134      10.7712      160.925 
2.30059e-05      10.4364      29.7577 
2.29139e-05      9.12099    -0.754220 
0.000154818      8.80236     -21.3152 
8.98092e-05      10.3271      172.543 
4.49070e-05      7.56390     -36.5084 
-0.000176607      11.9868      32.0464 
0.000238329      6.28504     -52.1094 
2.28497e-05      9.74475      77.6751 
0.000154136      12.2296      127.827 
2.28812e-05      6.79492     -58.5989 
-0.000106412      10.3327      35.2286 
2.27911e-05      12.5172     -40.2049 
-4.52412e-05      7.13489      21.0293 
2.28179e-05      9.04947     -163.565 
8.93653e-05      11.5135     -125.956 
-2.27171e-05      11.7361     -60.1565 
-2.27456e-05      12.0042      142.786 
0.000196841      14.0061     -136.619 
-2.27235e-05      9.10675      21.3788 
0.000226347      9.39226      154.254 
4.44217e-05      11.8706      133.294 
-4.46123e-05      10.1035      1.47251 
6.62551e-05      9.86300     -171.724 
0.000213585      8.93564     -121.732 
4.44484e-05      9.80262      106.476 
0.000131581      11.5925      35.3083 
0.000130926      12.5254      128.518 
-0.000110201      14.1713     -134.313 
2.24979e-05      13.8361     -133.477 
-0.000109294      9.12012      114.484 
-0.000109388      10.7330     -116.567 
0.000175610      9.97440      107.744 
0.000172832      7.58020     -36.4173 
6.61713e-05      9.88624     -59.7508 
-4.40160e-05      4.19506      152.459 
-0.000285246      3.68589      131.038 
0.000152471      12.5298     -40.2730 
-4.44082e-05      12.4126     -38.4586 
-8.73337e-05      10.4343      54.3622 
0.000108995      11.1255     -141.276 
-6.62098e-05      11.3260      149.313 
-2.23313e-05      9.70528     -94.1367 
6.56602e-05      13.8503     -133.422 
2.22579e-05      7.10878      95.1660 
-2.22752e-05      6.50311      30.9037 
6.53669e-05      12.9769     -137.060 
6.51624e-05      11.4431     -56.4767 
0.000130369      10.0847     -78.4451 
-4.38502e-05      7.59357     -141.951 
-8.72939e-05      9.72910      155.596 
0.000130082      12.2481     -145.713 
3.94365e-05      11.4049     -56.5891 
8.66951e-05      9.84147     -173.582 
4.35557e-05      13.3465     -137.247 
2.19601e-05      11.5720     -53.1479 
-8.65888e-05      11.3117      151.487 
-0.000108006      10.6460      125.750 
8.64445e-05      6.30627     -13.1995 
-6.49098e-05      10.9130     -24.1241 
2.18927e-05      6.82424     -122.430 
-2.18023e-05      13.7242      133.230 
2.18828e-05      11.4323     -56.5582 
4.31421e-05      7.96050      26.2438 
0.000150524      13.4520     -137.894 
-4.32591e-05      11.9205     -56.1489 
-4.29974e-05      10.6511      128.288 
-4.31854e-05      12.2202     -37.1514 
6.50932e-05      9.74485     -114.882 
4.31825e-05      11.9175      47.3118 
0.000107288      11.7743      54.9598 
6.44550e-05      10.1385      175.019 
4.31053e-05      7.98763      77.5658 
8.56947e-05      10.9679     -55.3227 
-4.30299e-05      11.2790      153.571 
4.29767e-05      10.7571      120.380 
4.29868e-05      1.74184     -124.238 
-4.28763e-05      11.3024      151.574 
-2.16159e-05      10.4120     -25.9741 
-0.000151567      7.12021     -117.429 
2.16202e-05      11.5016     -125.874 
4.29669e-05      9.79689      106.363 
-2.16637e-05      7.28836      15.6002 
6.40826e-05      10.2145     -153.235 
-4.28132e-05      13.0907      128.673 
-2.15220e-05      7.54755     -87.4186 
-4.28846e-05      12.1702      130.602 
2.15041e-05      8.54025     -90.2668 
-4.28344e-05      9.18955      81.9923 
8.34879e-05      11.8854      133.227 
4.27066e-05      11.4858     -125.931 
-2.14198e-05      10.3487      54.8337 
2.14128e-05      8.56574      15.8516 
2.14445e-05      8.85602      136.466 
-4.26545e-05      14.1855     -134.372 
-2.13414e-05      10.2355      19.6372 
2.13727e-05      9.13632      56.5175 
2.13548e-05      10.7110      158.415 
-2.13516e-05      12.3175      135.197 
2.12659e-05      10.0061      107.929 
0.000102911      9.87605     -59.8523 
-2.12521e-05      9.72074      30.6808 
2.12328e-05      11.8869      147.993 
2.12388e-05      6.80510     -58.4587 
-0.000132002      10.0823     -178.750 
-4.80760e-05      10.2177     -176.632 
-0.000369507      12.8693     -45.0000 
-0.000340187      13.5676     -136.614 
-6.91506e-05      12.4048      124.688 
0.000111737      12.4887     -40.1939 
-2.35423e-05      12.8979     -45.0000 
0.000109283      13.7645      42.0545 
-0.000201322      10.2223      121.886 
-6.40703e-05      8.01810      3.86365 
5.87373e-05      13.3957      133.729 
-0.000238514      13.8858      42.6063 
-0.000107572      10.0001     -116.359 
-0.000139044      10.2367     -176.752 
-2.24825e-05      10.9464     -45.5916 
-8.52751e-05      7.44618      22.0855 
-6.06294e-05      11.3260      30.6871 
-4.37737e-05      9.11084     -43.3981 
-2.19933e-05      8.01676      3.71918 
8.06293e-05      13.4097      133.792 
0.000101576      9.33332     -142.050 
0.000159001      12.3326     -45.3944 
4.24897e-05      9.97301     -14.3991 
-6.25578e-05      11.0034     -154.599 
-0.000154733      10.6341      125.662 
0.000155874      8.00669      77.5958 
-4.11240e-05      7.70764     -30.2271 
-6.01803e-05      9.51459     -40.8233 
2.10290e-05      8.09559     -78.7432 
-4.11476e-05      9.09613     -43.4858 
-4.04653e-05      10.2768     -48.8664 
-9.88883e-05      4.68033      89.5131 
-4.05978e-05      8.95839     -22.4449 
2.06339e-05      13.3831     -41.0010 
3.99255e-05      9.14021     -143.631 
-4.01363e-05      10.2015     -71.6010 
7.73254e-05      8.55969     -90.1356 
3.83086e-05      11.1708     -150.268 
-2.04433e-05      10.9325     -45.5200 
5.82148e-05      9.76507     -52.2389 
-0.000169405      9.98592     -170.894 
-0.000171154      13.3822      47.9660 
2.02891e-05      8.38785     -41.5220 
3.93191e-05      9.17206      24.8878 
-5.69694e-05      10.2792     -174.979 
-5.73560e-05      9.95737      123.118 
-0.000150487      10.7141     -159.570 
7.69100e-05      11.1809     -150.178 
-5.72100e-05      8.37829     -69.7473 
-9.40083e-05      6.17862      175.542 
-2.00174e-05      10.2915     -48.9379 
-5.87127e-05      9.70332      30.7419 
3.91090e-05      4.77822     -5.04535 
-5.68868e-05      10.9945     -154.460 
-9.52273e-05      10.0779      7.98651 
-3.86767e-05      7.38496     -30.2439 
-3.84069e-05      8.44870     -47.2063 
3.77570e-05      7.89289      38.9337 
5.75353e-05      10.0219      22.7789 
-9.16153e-05      5.45452     -39.6471 
1.97283e-05      12.3690     -125.257 
-0.000185734      11.8873      131.520 
-3.85506e-05      9.70384     -94.0174 
-1.96186e-05      8.29716      118.665 
5.56950e-05      12.5321      47.9123 
-7.60080e-05      11.4602     -33.8274 
1.96014e-05      13.4420     -138.195 
-5.63444e-05      7.35163      15.6265 
-3.78269e-05      8.60021     -179.865 
5.62873e-05      4.49074     -157.201 
5.71201e-05      11.1840     -132.390 
5.62950e-05      8.51685      81.3552 
-0.000164208      10.3043     -48.8561 
-9.29195e-05      11.6509     -141.832 
3.82507e-05      10.2575     -122.825 
-3.75670e-05      8.22939      10.9278 
1.91336e-05      13.4269     -138.138 
-9.17339e-05      5.83080     -22.1684 
9.19422e-05      10.9377     -155.589 
-1.91035e-05      7.41401      35.4467 
3.77469e-05      10.2999      22.7316 
-3.76468e-05      13.7299      47.3611 
-1.89612e-05      5.36739     -25.6121 
-1.90325e-05      7.78349      55.5745 
5.46397e-05      10.4264      29.6610 
-1.90001e-05      11.6611      131.455 
7.34566e-05      12.0666      50.7186 
-1.89558e-05      8.97712     -22.3955 
9.17125e-05      12.8339      46.8314 
0.000127536      13.4399     -138.076 
-5.50012e-05      10.8986      22.8930 
-9.06251e-05      10.3491      171.666 
-3.61282e-05      5.86950      100.005 
-3.61508e-05      6.80062     -157.884 
1.87059e-05      8.41595     -41.5300 
1.87066e-05      10.9720     -124.154 
-5.45392e-05      7.75738     -40.7125 
-5.34508e-05      7.81733      116.105 
-5.45892e-05      8.13720      157.910 
-8.94037e-05      13.5093      136.260 
-3.66541e-05      8.77827     -108.186 
-3.61507e-05      9.99113     -116.001 
5.43966e-05      7.02368     -48.0010 
-3.66179e-05      11.6015      127.856 
7.16839e-05      7.10664     -39.2881 
5.40053e-05      13.8120     -47.1113 
-1.83778e-05      12.3463      135.330 
-1.83874e-05      13.7305      47.4784 
1.83661e-05      5.95057     -28.2875 
0.000124912      9.19830      169.352 
-8.92116e-05      4.04606     -83.4721 
-3.60029e-05      7.42578      35.5740 
7.14017e-05      12.3655      41.7874 
1.82240e-05      12.3850     -125.205 
-5.38240e-05      11.6477      131.380 
-1.82033e-05      7.72515     -30.1515 
-3.55556e-05      9.68363     -94.0258 
7.21576e-05      9.34930     -142.127 
-1.81560e-05      12.3461      44.9360 
-3.58659e-05      9.33581     -160.866 
5.40874e-05      11.6540      28.7203 
-1.81358e-05      7.77206      55.6977 
5.35499e-05      6.76928      74.4062 
8.89728e-05      11.1703     -132.313 
-1.80975e-05      7.36811     -30.3203 
-3.59999e-05      13.7239      133.347 
3.55750e-05      10.2411     -122.884 
-5.32846e-05      13.7442      47.4161 
-5.34061e-05      10.0972      7.97113 
-3.56186e-05      11.4433     -33.8839 
5.32577e-05      10.2813      22.7752 
-5.33156e-05      8.47451      174.854 
1.79940e-05      10.3307      63.6806 
-7.10921e-05      12.3604      44.8696 
3.56754e-05      10.3059     -146.156 
-5.32496e-05      10.8960     -52.9833 
1.79382e-05      8.99789      59.8426 
3.55969e-05      12.0042      127.214 
3.54226e-05      10.4831     -54.5534 
5.33865e-05      11.1310     -130.848 
-5.34974e-05      13.3953      47.9040 
-3.54610e-05      13.1396      135.803 
3.55063e-05      13.8889     -44.1835 
1.79035e-05      10.0295      22.8817 
3.53571e-05      6.04212      158.447 
3.54377e-05      8.49682      81.3346 
-3.56718e-05      7.52642     -87.5658 
1.77667e-05      10.1374     -42.2820 
7.06708e-05      10.3394      63.5837 
3.51899e-05      12.4819     -139.418 
-1.77306e-05      9.94631      123.020 
-1.76498e-05      10.1951     -71.7091 
-1.75642e-05      9.93302      121.163 
1.75463e-05      12.5831     -35.6862 
5.34054e-05      9.95179      28.5729 
-1.74814e-05      6.70098     -146.691 
-5.35053e-05      12.3038      135.262 
5.38536e-05      11.0537      42.7276 
1.85120e-05      12.0922      42.1830 
-3.54556e-05      13.2893      49.3324 
3.52785e-05      7.86498      38.9082 
-1.79065e-05      10.9857     -154.555 
1.77585e-05      10.4840      123.720 
1.77474e-05      10.2111     -19.9277 
-1.77003e-05      7.44227      35.4833 
-1.76890e-05      6.29945      15.8441 
-3.51358e-05      11.4049     -145.863 
-1.76493e-05      9.92255      121.063 
-3.49566e-05      11.5895      127.780 
1.75102e-05      11.8987      133.296 
-1.74894e-05      9.07717      21.5894 
1.75143e-05      10.0080     -163.992 
1.74670e-05      6.78894      73.2195 
-1.74644e-05      9.30493     -160.668 
-1.74247e-05      5.32644      39.6671 
-1.74471e-05      10.6921      52.8293 
1.74144e-05      4.47276     -157.104 
1.74417e-05      5.85218     -33.1440 
1.74759e-05      9.52381     -52.9387 
-1.73420e-05      11.7490      56.1739 
-1.72986e-05      10.9762     -154.414 
-1.72788e-05      5.85291     -6.07898 
1.72634e-05      7.06246     -39.3691 
1.72992e-05      8.00236      77.7375 
-1.72336e-05      8.12960      158.042 
! Tentative model.
! Flux (Jy) Radius (mas)  Theta (deg)  Major FWHM (mas)  Axial ratio   Phi (deg) T \
! Freq (Hz)     SpecIndex
1.79076e-05      11.0537      42.7270 
