! Center RA: 12 21 31.69053,  Dec: +28 13 58.50012 (2000.0)
! Established model.
! Flux (Jy) Radius (mas)  Theta (deg)  Major FWHM (mas)  Axial ratio   Phi (deg) T \
! Freq (Hz)     SpecIndex
  0.154776    0.0202604      180.000 
 0.0330305      0.00000      0.00000 
 0.0127808    0.0286526      135.000 
0.00318495     0.101837      101.476 
0.00131822    0.0446338      116.996 
0.00260765     0.121759      99.5784 
0.00307500     0.141777      98.2159 
0.00736565     0.164706      103.973 
0.00639536     0.184432      102.453 
0.00656807     0.470689      102.241 
0.00773980    0.0202604     -90.0000 
0.00487986     0.204262      101.227 
0.00697000     0.495028      104.036 
0.000452637     0.227911      105.272 
0.000425164     0.247514      104.036 
0.000362473    0.0828082      75.8378 
0.000273611     0.266484      103.019 
0.000386403     0.120062      90.0000 
0.00195817    0.0446338     -116.996 
0.00135988     0.286260      102.105 
0.000457457    0.0720098      56.4755 
0.000851147     0.101837      78.5245 
0.00258503     0.519084      105.684 
0.00144107     0.306099      101.310 
0.000873407    0.0720098      33.5245 
0.00102413    0.0562440     -135.000 
0.000106149    0.0896014      63.6495 
0.000288200    0.0848966      45.0000 
0.000634675    0.0720098     -146.476 
0.000719255     0.538618      105.101 
0.000814628    0.0828082      14.1622 
0.000265697     0.325253      100.636 
8.58692e-05     0.329594      104.100 
8.55370e-05    0.0896014      26.3505 
0.00372980    0.0286526     -45.0000 
0.000494831     0.544027      107.085 
0.000703667     0.286050      114.817 
0.00375892     0.569504      108.435 
0.000336861     0.313099      116.626 
0.000107384     0.304558      113.217 
0.000105955     0.268467      116.565 
0.000104654     0.323277      111.801 
0.000346496     0.250509      118.638 
0.000836278     0.550320      109.102 
0.000482167     0.341468      110.586 
0.000584996     0.223834      116.479 
0.00158189     0.360505      109.453 
0.000445993     0.178866      116.673 
0.00148843    0.0397705     -90.0000 
8.44616e-05     0.152624      113.162 
0.000162160     0.594563      109.693 
8.13888e-05    0.0633577      71.3505 
8.09770e-05     0.740145      108.931 
0.000749737     0.765732      109.820 
0.00145324     0.576231      110.346 
7.90321e-05    0.0998015      90.0000 
0.000139109     0.205897      118.994 
0.000138210    0.0446338     -63.0042 
0.000885135     0.784114      109.337 
0.000594400     0.233573      120.932 
0.000190366      1.03223      98.9077 
0.000303914    0.0600310     -90.0000 
0.000640713      1.05225      98.7368 
0.00104216     0.379669      108.435 
0.000593283    0.0633577     -108.650 
0.000783502     0.810035      110.214 
0.000211695      1.07228      98.5724 
0.000304041      1.00559      107.367 
0.000824322     0.260826      122.547 
0.000340539      1.09157      98.4198 
0.000368211    0.0720098     -123.524 
4.85145e-05     0.986983      107.705 
0.000321426     0.101837      11.4755 
0.000411818     0.386554      111.285 
0.000517272      1.01158      108.422 
0.000345780      1.08889      97.4042 
0.000579090     0.120062      0.00000 
0.000321360    0.0848966     -135.000 
0.000237823      1.11162      98.2668 
0.000608558      1.01816      109.503 
0.000590642      1.10898      97.2693 
0.000213117     0.100252     -143.216 
0.00107476     0.817257      111.547 
0.000301015     0.404795      110.283 
0.000276159     0.271820      126.016 
0.000155893      1.01006      97.9856 
0.00138477      5.24786      120.962 
0.000667264     0.141777     -8.21587 
0.000331008     0.145849     -164.176 
0.000895414      8.82175      119.472 
0.000412373      3.65036      115.301 
0.000518578      3.61515      114.868 
0.000404761      4.09929      104.990 
0.00140819      1.95188      119.453 
0.000727310      3.71052      111.173 
0.000265634     0.563425      106.480 
0.000108487     0.300155      126.870 
0.000348107      1.05099      111.178 
0.000753457      1.12908      97.1392 
0.000403428     0.987333      96.9846 
0.000131100      4.01763      102.655 
0.000855659     0.161111     -7.22432 
0.000363372     0.164706     -166.027 
0.000208437      4.10438      105.253 
0.00116946      5.88126      91.1697 
0.000313440      4.23532      103.379 
0.000332454      6.65760      110.396 
7.60895e-05      6.78318      114.753 
0.000405227      4.98827      110.905 
2.47705e-05     0.113549     -45.0000 
0.000741904      6.79137      114.903 
0.000510680      4.25901      103.583 
0.000691348      3.28447      110.306 
0.000137051      3.98914      102.151 
0.000988529      7.36146      115.938 
0.000200448      3.51327      97.8567 
0.000113626     0.312731      129.841 
0.000131325     0.558204      104.559 
0.000132459      7.52174      105.739 
0.000200911      8.81180      119.357 
0.000675188      6.62456      110.128 
0.000176611      3.98507      101.877 
6.32849e-05     0.284207      129.321 
0.000443020      7.54124      105.697 
0.000172085     0.325575      132.478 
0.000408325      3.08353      87.3917 
0.000199729      1.08495      112.788 
0.000491027     0.985074      95.8148 
0.000184937     0.553458      102.529 
0.000209722      3.51056      97.5291 
3.28623e-05      4.10976      105.526 
1.95619e-05     0.164706     -13.9729 
0.000147977     0.184432     -167.547 
0.000347411      4.99553      111.122 
7.43417e-05      3.97906      107.256 
0.000502960      1.92354      81.0227 
0.000116431      5.47547      117.878 
0.000277971      7.24649      117.626 
0.000103998      8.78421      119.307 
0.000291252      3.96184      101.648 
0.000101089     0.339586      135.000 
0.000201609      7.53579      105.549 
9.95393e-05     0.220795     -174.735 
0.000150003      3.97310      106.977 
0.000442793      5.88171      91.3671 
0.000220577      8.63538      118.347 
3.33484e-05      6.81111      111.896 
0.000209384      3.10217      87.7820 
6.49956e-05      3.27775      109.986 
0.000216664     0.549419      100.466 
0.000268499      7.56075      105.656 
0.000327297      7.25555      117.763 
8.75902e-05      6.81869      112.054 
0.000129698     0.373757      105.487 
0.000285076      3.30982      110.518 
6.15240e-05     0.353651      137.236 
0.000127932      1.11872      114.279 
0.000211971     0.240977     -175.177 
3.08009e-05     0.824622      112.808 
0.000154922      7.03567      112.917 
0.000101174     0.184432     -12.4530 
0.000293931      1.98961      120.182 
0.000349248      3.10145      88.1560 
9.93302e-05      3.64174      115.013 
0.000166528     0.850533      113.557 
0.000110248      3.47784      103.640 
0.000109896      3.48786      97.2427 
5.71230e-05     0.368782      139.373 
0.000163288      7.56248      103.923 
5.44731e-05      5.39506      118.087 
0.000149410      8.61755      118.411 
1.43861e-05      1.89037      83.9160 
0.000108216     0.181229     -6.41879 
0.000107726      3.95780      101.361 
0.000107281      6.73564      115.880 
0.000133837     0.983289      94.6838 
9.31050e-05      5.22007      120.886 
9.30726e-05      5.02147      111.247 
2.64503e-05      3.81088      115.495 
4.00732e-05     0.384386      141.340 
1.34083e-05      6.61787      109.970 
2.63015e-05      1.10660      96.2286 
-9.09442e-05      5.09994      118.070 
2.61596e-05      4.08531      111.541 
3.90327e-05      1.92668      80.4496 
2.58300e-05      6.59192      109.864 
2.56390e-05      7.49748      105.630 
1.28308e-05      5.90246      91.5517 
1.28024e-05     0.459977      145.636 
0.00158742      5.81901      72.1889 
0.00178159      2.89878     -25.3180 
-0.00119605      7.64729     -70.7614 
0.000212340      13.2800      44.4529 
0.000929938      8.30090      138.320 
0.000693288      13.2945      44.3917 
0.00113737      7.26218      50.6985 
-0.000904727      4.61850     -73.1313 
0.000592677      13.2937      44.5129 
-0.000575034      7.26453     -52.7194 
-0.00101272      11.3417      134.858 
-0.000488589      6.91989     -109.064 
0.00117019      8.90106      76.0879 
0.000102891      6.40039      148.544 
-0.000727325      8.00586     -120.476 
-0.000201335      4.62420     -72.9000 
0.000297913      8.28634      138.230 
0.000725942      6.42825      148.485 
0.000373562      10.2691      46.1073 
-0.000698874      11.5937      146.968 
-0.000283288      6.66821      57.1218 
0.000868004      9.17691      67.8497 
0.000543134      4.67028     -137.084 
-0.000448027      4.75118      148.248 
0.000682343      12.0206      146.811 
-0.000351923      6.10944     -45.2687 
0.000183973      11.5344     -130.427 
-0.000347512      7.87395     -155.064 
-0.000676146      6.46058     -89.2879 
-0.000345733      4.31518     -40.1117 
0.000502780      11.7585     -58.6349 
-0.000439265      8.36569      33.1969 
0.000497155      7.46025      9.41306 
-0.000345410      9.97807     -165.488 
-0.000668520      3.11014     -164.710 
0.000671114      8.86836      135.823 
0.000254181      6.37165      47.7971 
-0.000337508      7.78326     -79.7875 
-0.000585860      6.66225      56.8809 
-0.000496255      12.6124     -37.3969 
-0.000334374      10.3370      126.026 
0.000414530      10.6599     -67.3792 
-0.000328214      3.95341      48.4857 
0.000413854      11.8209      123.475 
-8.75585e-05      3.60562      139.947 
-0.000323649      3.46853      165.645 
0.000486090      10.2545      46.0288 
-8.65148e-05      7.68983      122.572 
-8.61839e-05      9.64466     -138.110 
0.000165005      1.98286     -98.7066 
-0.000400871      4.77868      148.177 
-0.000323411      10.0071      173.343 
0.000319944      10.4949     -167.341 
0.000244044      8.31439      138.216 
-8.40136e-05      6.92628     -109.216 
-0.000160046      5.41887     -157.882 
0.000160649      7.61412     -67.6103 
-0.000240590      7.23614     -52.7498 
-8.30199e-05      8.60394     -37.3486 
-0.000241792      7.50061     -129.589 
-0.000159429      9.63164     -138.196 
-0.000314091      9.84836      59.8950 
8.22080e-05      11.5217     -130.354 
0.000159358      10.3089      127.672 
-0.000160592      6.31579      51.1733 
-0.000235441      12.1125     -51.5021 
0.000237066      9.62583      18.2866 
0.000157315      10.9482      133.814 
0.000235956      4.66881     -136.739 
-0.000157520      9.45265     -41.3117 
-0.000233770      13.6054      135.594 
0.000157818      8.35890     -24.6049 
0.000156852      8.19402      55.3407 
-0.000155649      9.91640      126.222 
-0.000232650      12.1394     -147.513 
-0.000316438      8.34874      33.2730 
-0.000155397      10.1594     -121.311 
0.000155555      12.3610     -45.7870 
0.000156214      10.6413     -73.0639 
-0.000231882      7.66619     -123.401 
7.89457e-05      6.07863     -97.9401 
-0.000155948      8.28455      169.289 
-0.000230083      10.0405     -179.542 
-7.84331e-05      9.92838      126.316 
0.000153964      7.59080     -40.4053 
-0.000152013      8.02315     -88.4297 
7.65812e-05      10.4545     -141.835 
-7.65723e-05      7.71718      122.621 
0.000150855      6.22431     -104.708 
-7.58441e-05      9.97447      46.7071 
-7.57676e-05      6.31882      51.4220 
7.55816e-05      10.6666     -72.9915 
7.53817e-05      9.92009     -76.3579 
7.50576e-05      10.4865     -164.400 
-7.48942e-05      11.8407      142.550 
0.000904828      10.2526      6.83478 
0.00155466      8.86088      55.0179 
-0.000590591      6.82536      59.1518 
-0.000718122      12.9684     -139.630 
-0.000853528      9.36361      61.1345 
-0.000313165      10.8865      47.6036 
0.000242571      8.30126     -115.703 
-0.000166211      9.37304      61.0300 
-0.000639914      12.9240      48.6391 
0.000641150      7.45708      52.3010 
-0.000238736      9.33585     -41.6114 
-8.31350e-05      3.84801     -133.317 
0.000591913      6.95014     -116.122 
0.000214335      8.84928      55.1254 
0.00106483      10.7036     -72.7159 
-0.000423839      3.84947     -132.899 
-0.000586245      9.74644      130.422 
-0.000801025      13.4665     -42.0503 
7.91099e-05      8.29249     -115.577 
0.000358528      7.41661     -154.609 
-0.000817352      13.5147     -130.740 
-0.000821970      11.3343      46.9289 
-0.000491082      9.98167      107.491 
-0.000216010      5.77276     -75.1473 
-0.000277694      9.39408     -136.554 
-0.000195746      6.40470     -50.1953 
0.000449074      4.13878      145.235 
-0.000147581      12.2241      40.7558 
-0.000391471      3.60879     -14.1171 
-0.000140535      11.4883     -123.137 
-0.000210754      3.58032      52.4936 
-0.000273675      8.77447     -78.5613 
0.000207593      7.42961     -132.925 
0.000475162      5.25755     -50.5598 
-7.30676e-05      3.77064     -107.285 
-0.000323344      9.30069      142.513 
-0.000206588      10.1485     -122.281 
-0.000135723      9.22179      12.0186 
0.000201663      8.29218     -115.883 
0.000139169      7.98105     -105.258 
-0.000262319      9.36445     -41.6217 
0.000203196      6.78271     -173.565 
-0.000198775      8.49505      28.8585 
-0.000446940      10.4520     -147.344 
-0.000139329      11.0174     -30.4283 
7.09718e-05      10.6783     -72.7874 
-0.000410334      4.19996      89.7236 
-0.000309010      11.1556     -124.260 
-7.04872e-05      4.30376     -99.8992 
-7.04717e-05      11.0813      147.828 
0.000356881      8.20497      131.344 
0.000197812      5.80921      22.6796 
-0.000447886      6.83281      59.3794 
-0.000431005      9.80292     -116.932 
0.000302878      10.0338      142.127 
0.000194359      9.77632     -86.7175 
-0.000354924      12.2068      40.9470 
-6.87207e-05      5.70583     -172.747 
-0.000238640      3.77648     -107.567 
-0.000524648      11.0648      147.775 
-6.78374e-05      4.93554     -171.378 
-0.000302178      2.31944      29.4345 
-0.000407338      4.30045     -99.6431 
-0.000250612      4.74783     -39.1887 
0.000190559      9.92164      152.247 
-0.000126279      6.14520      113.397 
-0.000182620      6.39175     -50.3348 
-6.59377e-05      9.09698      29.2144 
6.57892e-05      12.6477     -130.061 
-0.000389532      11.0451     -30.4657 
-0.000181157      10.0403      56.3717 
6.48192e-05      10.0496      82.3364 
-0.000239919      9.10482      29.0408 
-0.000122497      10.3655     -111.863 
-0.000119436      10.8721      47.5343 
6.34353e-05      7.96739     -105.430 
-0.000290887      3.58873      51.7930 
-6.32459e-05      4.95270     -171.637 
-0.000177680      9.98161      124.965 
0.000287417      4.91436      41.8682 
0.000112257      3.77783     -100.067 
-0.00133291      11.5080      59.1554 
0.000120726      12.6448     -130.188 
6.20509e-05      6.77050     -67.6019 
6.17406e-05      6.65289     -47.4364 
-6.16495e-05      9.89228     -122.535 
-0.000163055      5.72518     -172.772 
-0.000361569      12.9529     -139.572 
0.000952500      10.0523      82.2262 
6.13178e-05      6.14650      55.7415 
6.12882e-05      6.65292     -129.145 
0.000274523      10.9692      61.9413 
-0.000277271      2.91184     -84.8844 
-0.000354742      9.80364     -117.191 
-6.05845e-05      13.5015     -130.675 
0.000212906      8.12203     -145.331 
-0.000364845      8.77047     -78.6910 
-0.000115869      7.07259     -33.4625 
0.000323776      5.17635     -45.6284 
-0.000505718      11.6813      135.138 
-0.000299466      9.79639      42.3519 
-0.000434651      4.93265     -171.602 
5.97888e-05      8.61246     -143.692 
-0.000174662      8.50189     -138.625 
0.000165643      7.45747     -19.2590 
5.92963e-05      10.8241      55.3129 
0.000302325      6.77825     -67.4436 
-0.000162645      11.9570      130.592 
-5.86918e-05      10.1422     -122.439 
0.000214844      7.18523     -39.8056 
0.000168374      7.42863     -133.146 
5.83925e-05      6.19833      54.7187 
-0.000113658      10.0003      107.457 
-0.000165998      9.90279     -122.630 
-5.80361e-05      12.1181     -147.672 
0.000111988      6.92903     -122.866 
5.79078e-05      1.85369     -113.524 
0.000732945      7.44470      52.4244 
-0.000164432      5.64260     -45.4310 
-0.000113558      11.0893     -30.4484 
-0.000336038      7.08888     -33.3755 
-5.72159e-05      9.99281      125.057 
-5.72635e-05      10.4296      47.0963 
0.000200785      7.97281     -105.571 
0.000107136      7.40671     -154.406 
0.000158744      8.11052     -145.448 
5.67923e-05      6.65591     -128.900 
-0.000158899      3.59398      43.1895 
-0.000605792      8.66790      142.973 
0.000211737      3.73242      65.6352 
0.000762906      1.86187     -114.096 
0.000257799      10.8126      55.4012 
5.58550e-05      6.76257     -173.546 
0.000101323      6.90188     -107.018 
-5.53186e-05      12.3076      129.329 
-0.000312716      12.0136     -49.3898 
0.000107574      11.2325     -151.380 
0.000194649      5.83819      22.3457 
-0.000293782      4.42407     -69.3518 
0.000108105      12.6299     -130.245 
-0.000189469      3.86193     -133.536 
5.48146e-05      8.62819     -143.769 
-0.000428876      8.06567     -34.0863 
0.000187257      10.1027      118.238 
-0.000145441      9.31149      96.0414 
0.000143019      9.77750     -86.5989 
-0.000105414      4.96709     -6.00946 
-5.44071e-05      5.97240     -148.277 
0.000152380      6.21005      54.5661 
-0.000155624      9.12847     -169.648 
-0.000296013      8.51950     -138.903 
0.000271036      5.12760     -48.1617 
0.000103880      1.75637     -37.1343 
0.000244356      9.90371      152.192 
-5.35911e-05      9.11788      9.98094 
0.000692375      12.1288      140.959 
-0.000141886      10.3768     -111.718 
-5.34235e-05      10.4466     -147.192 
-0.000196857      10.4445      47.1719 
-9.92186e-05      9.37904     -41.5426 
-0.000181050      3.60120      130.944 
-0.000235289      12.3200      129.399 
-0.000225577      9.08711      29.1029 
5.28395e-05      6.17221     -97.4464 
0.000100030      10.8064      152.440 
-0.000236431      9.90962      2.54326 
-0.000439730      9.96502      125.032 
-0.000186175      5.98268     -148.118 
-0.000197600      6.22421     -156.315 
-5.20002e-05      12.0922     -132.183 
-5.19861e-05      9.32864      142.494 
0.000271833      12.1567      140.943 
0.000101730      12.5470     -130.928 
-0.000298104      11.1670     -124.346 
-0.000176154      5.54651     -148.719 
-9.93069e-05      6.50400      80.7985 
0.000190116      7.44198     -133.255 
-0.000509002      11.2005      134.856 
-5.10631e-05      3.59532      50.6492 
0.000312783      12.6276     -130.375 
0.000406078      9.92514      119.719 
-0.000349798      8.46694      40.6872 
-0.000487590      12.8753      133.238 
0.000211682      10.7568      113.561 
-0.000175478      10.7534     -109.446 
-0.000222010      11.8048     -39.5682 
-0.000222971      5.67125     -45.4289 
9.56049e-05      10.3105     -160.511 
-5.00221e-05      8.47008      29.1083 
0.000139196      6.93511     -122.634 
0.000582120      10.6076      74.4694 
-9.74019e-05      10.4691     -147.403 
4.97708e-05      11.2070     -151.195 
-0.000139064      9.89732     -122.790 
4.94311e-05      10.3274      170.300 
-0.000758416      9.50992     -79.8241 
0.000504964      12.2371     -56.8020 
-0.000459370      9.40764     -41.5531 
-9.68879e-05      3.59262      50.1944 
-0.000135411      10.0460      56.5319 
9.36160e-05      6.43530     -135.378 
0.000135382      6.17487     -97.6328 
0.000407309      6.76233     -38.3947 
-9.34912e-05      5.00954     -6.19139 
-0.000136179      8.98064     -171.418 
-0.000327818      5.32346     -149.777 
-0.00151716      12.0268     -49.3165 
4.81387e-05      11.3651      40.3592 
0.000140950      10.4160     -52.6463 
4.79400e-05      6.78046     -173.735 
8.97584e-05      10.0890     -19.3325 
-0.000175836      3.75862      169.881 
0.000176203      11.2147     -151.331 
-0.000293346      11.3334      46.7895 
0.000294951      12.5456     -131.057 
-0.000212690      10.3437      57.8757 
-0.000534761      11.0917      147.743 
9.19408e-05      9.29997     -101.284 
-0.000361006      8.88270      152.511 
-0.000136625      8.69628      142.947 
0.000214123      10.3474      170.318 
9.06285e-05      6.68934     -134.877 
-0.000177568      9.25631      114.238 
-0.000134521      9.13200     -169.528 
-0.000276962      9.31257      142.418 
8.69255e-05      3.74292      66.0352 
0.000312044      9.00407     -122.669 
-4.67019e-05      4.39190     -69.7476 
-0.000212001      9.36517      60.8616 
-9.08707e-05      5.68823     -172.526 
0.000127636      1.76822     -37.6383 
-0.000365673      3.60120      49.0555 
-0.000771328      13.4520     -42.1060 
-0.000294214      13.3125      48.0433 
0.000214224      10.9871      61.9910 
0.000127711      1.47986     -9.33814 
0.000333347      10.8015      55.4864 
0.000162510      6.62837     -150.341 
8.82932e-05      6.38311      119.054 
-0.000608078      12.7007      128.928 
-0.000209975      9.53258     -79.7294 
-0.000129109      10.4630     -147.250 
-0.000127624      4.29710     -99.3768 
-0.000171150      6.21355     -156.075 
-8.48434e-05      7.81387      163.187 
0.000209169      10.9403      137.296 
4.46360e-05      3.76210     -100.411 
0.000209132      10.3887     -52.6666 
-0.000120848      11.1170     -30.4855 
-0.000286729      10.0633     -122.994 
0.000162391      9.54061      53.6105 
-0.000408624      9.58884      72.3945 
0.000205119      8.46024      61.0115 
0.000336113      10.2530     -92.9072 
4.38561e-05      10.4042     -52.7317 
8.00123e-05      10.0350      82.0959 
-0.000184673      9.79474     -117.089 
4.36311e-05      10.0178      142.055 
-0.000193589      12.3044      129.459 
-0.000525377      8.12688      161.341 
7.65853e-05      4.21646     -10.9360 
0.000250386      9.03265      24.1824 
-4.35347e-05      8.99286      9.08348 
-8.37075e-05      8.97247      74.3528 
-8.42565e-05      9.00307      33.5854 
0.000154832      5.20447     -45.6192 
0.000571484      12.7152     -47.8057 
-0.000305247      1.47111      43.8840 
4.31884e-05      10.8054      152.675 
4.30397e-05      7.53527      79.1399 
-4.29557e-05      4.91625     -171.344 
-4.27906e-05      2.93314     -84.5242 
-7.98143e-05      10.3797     -142.910 
-0.000162570      8.53626     -139.181 
8.02155e-05      5.52017     -89.3769 
-0.000351488      4.98724     -5.98509 
0.000150702      6.34352      67.9620 
-4.20491e-05      3.60823      42.9774 
4.19882e-05      6.22138      54.4197 
0.000497941      11.6433     -58.0584 
-0.000206166      5.70832     -172.553 
4.18031e-05      9.54180     -13.4516 
0.000118458      6.56814      148.825 
-8.00306e-05      12.2048      41.0812 
-4.15760e-05      8.28862     -167.743 
4.14135e-05      6.74319     -173.527 
0.000191743      9.74012      165.737 
-8.05646e-05      7.43688     -120.011 
0.000189237      7.45793     -40.8670 
-0.000121548      14.0747      43.7903 
-0.000180573      4.41697     -69.5978 
0.000188033      8.90063      60.6709 
-0.000155907      8.84013      130.321 
0.000181101      7.44342     -133.039 
7.56742e-05      5.71242     -111.354 
0.000112781      7.35732      84.2284 
-0.000343508      9.92986      2.53808 
-0.000224438      9.15192     -169.551 
0.000390390      13.0807      132.398 
-4.02312e-05      10.3642     -142.845 
-0.000146664      8.96355     -171.275 
4.02190e-05      8.52665      61.8720 
-4.00963e-05      7.98861      127.474 
4.00102e-05      10.8234      152.724 
4.00141e-05      12.5739     -45.9672 
0.000310163      13.1813      41.1847 
7.27478e-05      9.30395     -101.406 
-0.000620682      10.8498      159.160 
-3.97061e-05      11.9855      130.602 
-0.000137404      6.85930     -75.4788 
3.96562e-05      1.86992     -114.642 
-0.000207041      9.22952      114.175 
-0.000146010      8.08246     -34.0058 
0.000319355      10.9689      137.290 
0.000144833      5.28549     -50.5246 
0.000455718      10.6976     -72.8196 
-0.000440383      11.6675      135.070 
-3.93898e-05      10.8584      47.6131 
-3.93156e-05      12.1040     -132.387 
0.000207947     0.903799     -65.1584 
-0.000427086      14.0888      43.7354 
0.000220794      10.3764     -52.7555 
7.39258e-05      10.0632     -19.2618 
-0.000865848      13.3607     -49.3708 
3.89587e-05      5.85694      22.2703 
-0.000136304      3.75018      164.851 
3.88840e-05      6.79707     -15.1808 
0.000422698      11.1976     -151.283 
0.000320611      1.85220     -114.893 
-3.87546e-05      7.97254     -37.5623 
-0.000113356      10.1875     -63.7860 
-7.52026e-05      7.66933      133.097 
-0.000212164      8.99703      33.7603 
0.000109530      5.09899     -48.1795 
3.83751e-05      7.20081     -39.7024 
3.84114e-05      8.99238     -60.4123 
0.000299564      7.43604      52.7589 
0.000141224      9.05604     -176.580 
-0.000132660      3.75717     -107.661 
-7.37997e-05      10.4753     -147.557 
0.000173625      8.63848      98.6531 
-3.80085e-05      7.01399      131.413 
-0.000140285      5.68549     -45.2834 
-0.000108686      8.58826      20.5900 
3.78628e-05      6.40083      118.966 
0.000141585      1.74027     -37.5370 
-0.000181079      13.3256      47.9809 
-0.000178780      8.72851      2.49319 
-0.000319067      13.7193      45.7091 
-3.75665e-05      5.41006      167.398 
-0.000376910      8.52093     -139.092 
-0.000101042      3.64942     -133.667 
-0.000101356      6.20566     -156.240 
-7.17734e-05      9.36695      60.5887 
-0.000171808      10.3691     -35.8963 
-6.98523e-05      6.52006      81.0017 
0.000136382      12.1486      143.773 
3.70620e-05      8.09384     -145.367 
-0.000231452      9.88637     -122.691 
-3.70034e-05      7.44704     -120.146 
0.000443340      10.3706      170.231 
3.70294e-05      10.8141      152.820 
3.69706e-05      6.17749     -97.8122 
-6.81839e-05      10.0512      56.6896 
3.68557e-05      6.87697     -59.4083 
-0.000127906      3.61222      48.3684 
0.000260708      12.6407     -130.445 
7.10254e-05      7.55079      79.3132 
-0.000166544      11.4945      31.6989 
-3.65878e-05      12.1095      55.8373 
3.65268e-05      11.8597     -132.813 
-7.10249e-05      8.39955     -71.8224 
-3.63690e-05      5.99926     -148.216 
-0.000104097      12.2030      41.2105 
-6.84184e-05      10.4307      47.2536 
-0.000240071      10.1610     -63.8399 
-3.61566e-05      12.2877      124.390 
-3.60540e-05      4.29385     -99.1101 
0.000169306      8.44252      60.9449 
-3.59311e-05      9.60784      43.0600 
-0.000130816      9.46666     -114.997 
-3.58451e-05      8.26955     -167.714 
0.000196960      11.3684      52.5038 
-0.000209835      12.2871      54.4725 
6.82039e-05      6.77824     -15.2240 
6.82628e-05      6.91806     -122.725 
-6.88171e-05      3.60277      49.5023 
-0.000101142      11.4771     -31.1687 
0.000120350      10.7947      55.7222 
3.55244e-05      10.1123      118.339 
0.000432474      14.1279     -135.056 
-3.53994e-05      9.74477      130.587 
-0.000188270      9.97623      125.123 
0.000128112      5.51999     -89.5872 
-0.000127677      8.48175      40.6013 
-3.52114e-05      7.68359      132.998 
3.52255e-05      14.1310      46.2049 
0.000557237      12.2478     -56.7257 
-3.51393e-05      7.51634     -53.2228 
-0.000281798      9.59360      43.1395 
3.50352e-05      12.5458     -45.9669 
3.49993e-05      5.23409      20.5810 
6.78259e-05      6.16307     -98.2110 
6.87098e-05      11.8414      144.832 
6.56496e-05      10.5402     -53.5666 
-3.49805e-05      7.17149     -51.3421 
-3.49022e-05      8.95846      74.1930 
-6.59250e-05      10.7477     -109.682 
3.47238e-05      9.02001     -60.3639 
-6.83069e-05      7.45027     -120.486 
0.000186372      11.0827      125.526 
9.65100e-05      9.55219      53.5163 
-0.000176316      7.42328      173.814 
-3.45459e-05      12.2753      54.5495 
9.87009e-05      3.33928     -71.1335 
-6.68797e-05      8.82704      130.221 
-6.69575e-05      7.06186     -33.3304 
-0.000284561      12.2595      124.365 
-0.000131980      5.17842     -153.632 
0.000331229      14.1445      46.0296 
-6.71712e-05      11.3500     -30.4967 
9.84717e-05      10.8061      55.6335 
-0.000126875      3.23465     -149.944 
-0.000125458      7.04203      131.432 
-3.41425e-05      12.0981      55.9167 
-0.000195830      13.3247      47.8600 
0.000150567      11.8476     -132.605 
3.40501e-05      6.39140      118.813 
-9.63300e-05      5.43411      167.244 
-0.000159066      9.17111     -169.573 
3.39041e-05      6.59597      148.766 
0.000262299      12.2246     -53.4487 
-3.37668e-05      3.76210      169.589 
0.000424275      12.0924      126.662 
3.37109e-05      9.92185      113.777 
9.56930e-05      8.86067     -176.115 
-3.34293e-05      10.3265      57.8159 
0.000129889      10.3642     -52.8447 
3.33895e-05      9.52209     -13.4799 
-3.33037e-05      8.24976     -167.684 
9.15827e-05      7.08906      2.91238 
0.000527039      10.0550      82.1118 
-0.000260958      12.2887      129.519 
-9.38502e-05      8.40566     -71.6961 
3.30669e-05      10.8052      152.912 
0.000178925      9.13928     -82.4560 
3.29621e-05      6.79079     -38.4225 
8.81485e-05      5.61024     -141.659 
3.28543e-05      9.75975      165.766 
-6.40487e-05      7.50422     -53.3467 
-0.000155352      8.74718      2.35996 
-0.000294005      11.6245      135.000 
3.26926e-05      8.32432     -143.600 
-0.000151002      13.7326      45.5313 
6.35088e-05      5.73059     -111.283 
0.000147918      8.64664     -92.2530 
-3.25519e-05      10.4813     -147.704 
-0.000372138      8.86540      152.452 
0.000190622      7.33716      84.2124 
6.29962e-05      11.7972      144.802 
0.000210737      13.3514      132.267 
3.23588e-05      11.3448      117.967 
0.000205541      9.02113     -122.599 
0.000364782      10.9260      137.227 
-6.21731e-05      8.60723      20.5426 
3.21834e-05      12.5436     -131.187 
3.21771e-05      12.5317     -46.0335 
-0.000150285      11.8432      56.0159 
6.04340e-05      8.46895     -82.6747 
6.32271e-05      7.53912      78.9887 
0.000345208      10.5210     -66.1151 
0.000408162      1.86082     -115.459 
6.22704e-05      10.1387      118.384 
-0.000117433      5.31687     -149.483 
-6.23470e-05      7.15932     -51.4640 
-3.19744e-05      7.46057     -120.620 
-3.19254e-05      9.01200      85.1615 
0.000200666      6.77493     -38.5290 
-3.16715e-05      3.56933      22.3919 
6.17251e-05      6.68113      116.487 
-0.000290032      10.1343     -63.8884 
6.15239e-05      11.8131      144.856 
-6.06004e-05      8.12634     -33.9630 
0.000118475      6.16589     -98.3904 
-0.000117428      14.1035      43.6785 
0.000363664      11.3174      117.924 
6.07854e-05      6.28438      22.6488 
-3.14364e-05      9.36958      60.3183 
-5.97032e-05      3.61451      131.187 
-3.13043e-05      7.82160      134.071 
-8.76515e-05      10.2325      2.79946 
3.12512e-05      5.25306      20.5034 
-3.12333e-05      6.19239     -66.9956 
0.000135389      9.71641      165.820 
-6.12817e-05      10.0096     -73.1572 
-0.000408380      12.7130      128.996 
3.10021e-05      6.09990      63.5169 
-3.10376e-05      11.3952     -30.4810 
-3.09613e-05      8.20675     -167.758 
-3.09694e-05      1.45658      44.4365 
-0.000188146      12.2011      41.3447 
-0.000114755      5.19658     -153.731 
5.96867e-05      6.38166      118.653 
-0.000643612      13.3383      47.7955 
0.000114998      6.35087      67.7988 
-3.07300e-05      12.6546     -138.652 
0.000145569      13.5147      139.260 
5.98606e-05      11.1558     -62.3335 
3.07407e-05      12.1650      143.829 
8.57230e-05      12.5303     -131.117 
8.78914e-05      8.90877      60.8441 
3.05589e-05      9.93074      152.147 
-0.000172355      6.94775      79.8856 
3.05859e-05      12.5036     -46.0383 
5.86846e-05      5.27263     -50.6945 
-0.000302687      9.56412      72.4749 
5.96254e-05      10.3524     -52.9308 
0.000272024      10.1311      110.332 
3.03229e-05      11.3808      52.4229 
3.02474e-05      4.16698      145.165 
3.02231e-05      9.94826      113.833 
-0.000268734      6.16583     -67.0953 
-3.02217e-05      11.0424      138.893 
-0.000113616      7.46352     -120.962 
-0.000136108      8.99211      33.9367 
3.01913e-05      6.92420     -122.493 
3.01758e-05      8.42482      60.8780 
-8.56326e-05      5.72789     -45.1433 
0.000190468      10.0899     -174.311 
3.01402e-05      2.42427      169.062 
-5.76381e-05      7.01687     -33.3740 
5.62182e-05      6.70365     -135.000 
-0.000163855      10.3533     -35.9596 
0.000208085      12.0641      126.642 
-5.85231e-05      11.4938     -31.1184 
0.000350026      8.29347     -96.5096 
0.000164186      8.64155      98.7859 
8.47987e-05      11.7658      123.420 
8.35994e-05      10.7780      152.959 
0.000401727      11.6326     -58.1431 
8.48545e-05      10.5910     -55.2301 
0.000135499      6.75339     -15.1032 
5.64764e-05      8.60039      118.472 
-2.98332e-05      10.3204      57.6665 
-5.85552e-05      8.18695     -167.728 
0.000113091      12.1371      143.847 
-8.08022e-05      11.1724      134.853 
-0.000349179      14.2988     -45.7357 
0.000163860      9.80670     -30.3833 
2.96954e-05      10.3238     -12.9877 
-7.90689e-05      8.99423      85.0272 
-2.96205e-05      3.67679     -14.4900 
2.95209e-05      8.66611     -92.1139 
-0.000194126      12.9040      133.242 
0.000215391      13.0663      132.456 
-0.000298874      14.1181      43.6217 
2.95032e-05      7.66441      80.5386 
-2.93691e-05      12.6698     -138.712 
-5.54959e-05      9.36206      60.1492 
-5.43053e-05      8.94737     -171.128 
-5.75047e-05      12.5487      52.3804 
5.48103e-05      9.47888     -13.4213 
5.80110e-05      12.4755     -46.0382 
0.000163504      12.6534     -130.512 
0.000166876      10.3662     -116.713 
-0.000107488      12.9375     -139.514 
-5.36525e-05      2.58918     -4.87120 
0.000161094      3.53842     -73.9211 
0.000112696     0.895778     -66.2909 
8.26221e-05      12.9421      46.0642 
-0.000188519      9.19104     -169.596 
0.000160292      10.5582      32.5436 
8.34223e-05      9.91283      152.093 
8.25212e-05      2.40438      168.971 
-2.90252e-05      8.94682     -110.139 
2.89809e-05      3.36503     -70.9186 
0.000188052      11.7690      144.825 
0.000312257      7.44832      52.6348 
0.000207712      8.43470      60.7578 
-2.88438e-05      11.4219     -30.5157 
-5.59057e-05      7.80752      133.964 
8.01060e-05      6.79360     -67.1338 
-5.59324e-05      4.92973     -171.835 
-0.000159493      10.3098     -83.3167 
-5.65648e-05      10.0152     -73.0503 
0.000185688      11.8919      126.659 
-5.63487e-05      8.32908      75.3941 
2.84789e-05      10.7304      113.508 
-8.16813e-05      7.69385     -123.439 
5.44850e-05      9.09456     -176.722 
-7.89724e-05      11.4779      31.7501 
-8.20413e-05      9.94935      2.53310 
-0.000137678      13.3739     -49.3049 
2.83815e-05      9.86562      63.1212 
-2.83682e-05      11.0658      115.592 
-5.46046e-05      8.45296      69.9339 
-5.39836e-05      9.45811     -114.886 
-7.96297e-05      10.3100      57.7581 
5.53580e-05      10.3402     -53.0203 
-0.000183428      12.6680     -138.583 
0.000129379      13.0943      132.464 
5.56240e-05      11.3653      52.3629 
5.32819e-05      8.30383     -143.322 
0.000130612      11.1464     -62.4258 
5.49497e-05      12.4614     -46.1052 
-2.79958e-05      8.16751     -83.8133 
-2.78993e-05      8.62620      20.4954 
-0.000106456      8.16359     -167.838 
-2.78402e-05      3.62426      47.6768 
-2.78379e-05      12.5979      47.4453 
-0.000103654      8.43056     -71.6070 
-7.77744e-05      5.45387      167.291 
-2.77198e-05      5.07564     -4.51954 
0.000104771      10.2398      18.6819 
0.000180447      12.5364      35.3882 
-0.000104904      8.63998      142.996 
7.85647e-05      7.75738     -49.2875 
-8.03189e-05      3.25220     -150.122 
-0.000255156      9.98790      125.218 
-2.74724e-05      3.78858     -165.009 
-8.04057e-05      11.0570      115.497 
2.73850e-05      12.4474     -46.0430 
-5.35086e-05      9.59271      43.3106 
-2.74058e-05      7.43412     -124.588 
2.73763e-05      6.90712     -122.583 
-0.000102508      8.49714      40.5124 
-7.92386e-05      5.09747     -4.72862 
0.000103443      13.1794      41.3090 
0.000104445      13.3658      132.210 
5.29303e-05      10.4943      73.8458 
5.32921e-05      11.1227      125.635 
2.72360e-05      8.34843      36.6237 
7.96892e-05      9.84823      63.0699 
-5.37081e-05      11.5389     -31.1005 
-2.72429e-05      8.04815      127.324 
5.40036e-05      9.82240     -103.780 
-2.71511e-05      7.32791      92.6588 
7.95299e-05      8.74252     -91.4411 
-5.11616e-05      6.86440     -75.3151 
0.000101706      10.6931      163.258 
0.000207397      14.1141     -135.000 
-2.70285e-05      10.4170      47.3354 
7.86446e-05      8.91830      60.7347 
5.26259e-05      6.62085     -150.102 
-0.000126567      11.7442     -36.8311 
2.69280e-05      12.3522      127.037 
-5.26648e-05      12.5611      52.3072 
0.000103706      13.5437     -42.7862 
7.79940e-05      8.08853      175.179 
-2.68353e-05      10.0212     -72.9395 
0.000127652      11.3773      52.2851 
-0.000176990      7.24842     -52.6224 
-5.13464e-05      11.8594      56.0686 
0.000102309      10.7522     -142.937 
-7.58814e-05      8.18977     -83.6929 
7.62537e-05      6.10906      63.7717 
7.66610e-05      9.16130     -82.3464 
2.65734e-05      13.3592     -140.040 
2.65155e-05      9.02220      24.3481 
-7.65279e-05      8.92668      116.910 
5.19403e-05      11.5387      138.937 
2.64438e-05      7.64443      80.5136 
0.000100757      13.5279      139.195 
-5.13775e-05      8.33402      75.2643 
2.63457e-05      5.59784     -17.4658 
-5.19033e-05      11.7060     -47.4212 
7.67973e-05     0.887825     -67.4882 
-7.63639e-05      8.76661      2.22220 
0.000152090      12.4333     -46.1102 
5.21032e-05      10.3280     -53.1101 
2.62270e-05      5.54025     -89.5887 
-0.000100793      13.7184      45.5917 
2.62996e-05      6.57784     -108.987 
-5.03268e-05      3.63598      46.5554 
-7.62178e-05      7.30676      92.5074 
-0.000100509      6.94422      80.0501 
7.49190e-05      9.30798     -101.528 
-9.98158e-05      9.98899      2.41103 
2.59906e-05      9.81247     -98.6735 
0.000148433      10.0310      160.914 
0.000125631      10.3901      11.5485 
0.000150788      13.7607     -135.177 
5.13918e-05      12.3923      127.127 
-0.000199605      13.1536     -135.862 
7.50604e-05      10.7837      55.8079 
2.58354e-05      9.91511      119.617 
2.57985e-05      11.9725     -37.3288 
5.12562e-05      1.86962     -116.020 
-7.46853e-05      9.75098      175.414 
-2.57788e-05      6.88824     -75.1993 
-2.57494e-05      7.79347      133.857 
-2.56118e-05      5.09584     -4.50159 
5.03652e-05      9.01024     -122.491 
7.49330e-05      12.1252      143.924 
7.48528e-05      9.80831     -103.922 
-4.99484e-05      8.33181      33.3494 
-5.04940e-05      7.42857     -124.801 
-5.00196e-05      10.0271     -72.8289 
-2.54732e-05      10.2315      2.69033 
-7.39013e-05      7.54109      60.4453 
-7.45633e-05      9.57798      43.3937 
2.54001e-05      11.1195     -62.4666 
2.53765e-05      6.57150     -172.830 
-5.00274e-05      3.70150     -14.7152 
4.97056e-05      12.9127     -51.0360 
4.98218e-05      10.3118     -53.0425 
7.46468e-05      10.3571     -116.613 
2.53559e-05      11.1715     -151.095 
-2.53619e-05      11.8707      55.9875 
-7.37842e-05      7.68816     -123.648 
0.000123688      11.9564     -37.3877 
9.84283e-05      6.80294     -38.5512 
-2.52314e-05      11.4671     -30.5001 
-4.98409e-05      9.19472     -169.471 
2.52226e-05      4.21077      145.256 
2.51929e-05      6.58446     -109.154 
2.51854e-05      9.14196     -82.3301 
2.51592e-05      5.31353     -50.5011 
-9.82382e-05      8.84744      152.392 
4.98274e-05      1.85143     -116.295 
-9.85854e-05      11.5935      121.167 
-7.40935e-05      12.0676     -49.2337 
-4.94648e-05      12.8702      52.1332 
2.50121e-05      11.8339     -132.533 
-7.35367e-05      13.7124     -138.310 
-2.50063e-05      7.04494     -33.4209 
2.50267e-05      10.3163     -53.1968 
-4.94928e-05      11.4459     -60.4788 
7.39530e-05      12.6380     -130.572 
-4.90964e-05      9.92329      73.6124 
2.48873e-05      6.36231      68.0304 
-2.49499e-05      12.6116      47.3775 
2.49746e-05      9.81555     -98.7905 
-4.92001e-05      5.11691     -4.71061 
-2.48977e-05      9.47650     -114.834 
-2.49036e-05      11.7479     -47.3452 
4.90406e-05      11.4783      144.287 
-4.92419e-05      12.2737      129.577 
4.93435e-05      11.4394      153.526 
-2.48844e-05      7.47091     -120.754 
-4.89652e-05      10.6285     -123.332 
9.75443e-05      10.7222     -72.7469 
4.93158e-05      9.83017      63.0164 
-7.32034e-05      12.9174      133.305 
4.89805e-05      8.76231     -91.3102 
-2.48074e-05      9.39249     -41.6351 
7.68794e-05      12.8270      135.318 
-2.48341e-05      9.52400      131.253 
0.000207759      13.3462     -140.107 
2.48292e-05      9.69380     -171.219 
2.48050e-05      11.1892     -151.145 
-2.47595e-05      3.66344     -133.896 
2.47600e-05      10.1571      110.399 
4.86331e-05      12.4046      127.202 
2.47095e-05      8.62721      118.529 
4.89654e-05      11.9198      126.677 
-2.46631e-05      11.9709      55.9643 
-2.46532e-05      8.14379     -167.808 
2.46717e-05      11.5673      138.927 
-9.71745e-05      14.1042      43.5621 
4.90775e-05      12.2589     -56.6465 
4.87130e-05      11.2907      117.880 
4.87888e-05      11.5496     -137.386 
2.45386e-05      12.7016     -47.8734 
-2.45447e-05      11.0138      138.903 
2.45299e-05      5.73876      14.3233 
2.45034e-05      6.55139     -172.808 
-4.84952e-05      10.3264     -38.1565 
2.45067e-05      10.4748      73.8150 
-4.84918e-05      11.7616     -47.2726 
-2.44608e-05      3.49996     -143.123 
-2.44565e-05      10.8176      34.4551 
4.84211e-05      11.3887      136.637 
2.43642e-05      13.5723     -42.7909 
4.83604e-05      1.86016     -116.834 
2.44209e-05      6.46367     -134.374 
2.42954e-05      7.62018     -90.0000 
2.42997e-05      10.5292     -66.0143 
-2.42677e-05      9.54480      72.4383 
4.81726e-05      9.16392     -82.2255 
2.42261e-05      9.60919      159.149 
2.42617e-05      7.55793      139.187 
4.81539e-05      13.1589      43.1537 
-2.41645e-05      7.41745     -124.677 
2.42143e-05      8.55270      103.388 
-2.41669e-05      10.3255     -35.9380 
4.81583e-05      14.1136     -135.114 
2.41533e-05      6.60394     -150.018 
2.41437e-05      10.3001     -53.1293 
2.41596e-05      13.5622      134.942 
-2.41491e-05      9.50636     -79.9443 
2.41419e-05      7.31775      84.1970 
-2.40865e-05      9.46801     -114.723 
-2.41207e-05      11.9427      55.9904 
2.40488e-05      10.5024     -66.0703 
2.40523e-05      6.36269      118.339 
-2.40311e-05      8.93586      117.026 
2.39801e-05      6.03803      125.424 
-2.40092e-05      10.3133      27.1094 
-2.40060e-05      10.8757      135.520 
2.40002e-05      12.5323     -130.987 
2.40221e-05      5.57316     -17.3273 
-2.39872e-05      12.0477     -146.099 
-2.40139e-05      7.15023     -84.7010 
2.39289e-05      10.9111      137.154 
-2.39532e-05      11.7998     -53.1301 
-2.39103e-05      6.44590     -92.4887 
-0.000138709      10.7545     -109.784 
-0.000105857      11.7721     -36.8480 
-2.76369e-05      11.7279     -36.8904 
7.84209e-05      10.7684     -143.002 
-0.000102200      12.3344     -42.0434 
0.000101849      9.44583     -70.0694 
-2.65395e-05      14.0601     -46.1526 
-0.000100771      10.2512      27.4147 
7.49442e-05      11.2371     -54.7817 
-2.59935e-05      8.51255      40.4238 
7.57991e-05      11.3722      37.3531 
-2.58034e-05      13.9071      136.574 
7.50779e-05      11.7489      123.475 
4.99477e-05      9.56425      53.4187 
-4.98393e-05      11.4322     -120.603 
4.98638e-05      8.27558     -96.6598 
-4.96977e-05      12.1876     -128.940 
-2.54009e-05      14.1164     -46.0338 
7.37579e-05      11.7425      48.2457 
-7.37592e-05      10.7611     -109.882 
-4.93379e-05      3.67751     -134.124 
7.35001e-05      12.7989      135.316 
2.48520e-05      10.1399      24.5945 
-2.47221e-05      7.49259     -53.4664 
-2.46769e-05      7.28563      92.2017 
-2.45557e-05      11.5951     -29.2192 
2.44576e-05      8.33636     -143.488 
-2.43510e-05      14.1721     -45.9139 
-2.43028e-05      10.4187      47.4898 
2.42658e-05      10.7718     -143.150 
2.42782e-05      7.74530      2.07097 
2.40691e-05      10.6021      25.1159 
-2.40231e-05      10.4453     -146.795 
-2.39476e-05      7.71077      133.214 
! Tentative model.
! Flux (Jy) Radius (mas)  Theta (deg)  Major FWHM (mas)  Axial ratio   Phi (deg) T \
! Freq (Hz)     SpecIndex
-2.51998e-05      11.7280     -36.8894 
