! Center RA: 12 21 31.69052,  Dec: +28 13 58.50019 (2000.0)
! Established model.
! Flux (Jy) Radius (mas)  Theta (deg)  Major FWHM (mas)  Axial ratio   Phi (deg) T \
! Freq (Hz)     SpecIndex
 0.0554726     0.101837      11.4755 
 0.0242991    0.0896014      26.3505 
0.00898438     0.107434      21.7271 
 0.0132166     0.116465      31.0271 
0.000542383     0.144435      33.7726 
0.000532559     0.156126      39.7351 
0.000524428     0.184676      40.5508 
0.00223040     0.169793      45.0000 
0.00749446     0.198446      45.0000 
0.00542880     0.212689      48.7190 
 0.0132455    0.0828082      14.1622 
 0.0190790     0.228306      52.0755 
0.00201745    0.0802914      0.00000 
0.00921917    0.0998015      0.00000 
0.00387294     0.233573      59.0678 
0.00144495     0.216445      56.3099 
0.000330086     0.297155      70.3754 
0.000323779     0.310708      75.0240 
0.00153240     0.329594      75.9005 
0.00167394     0.101837     -11.4755 
0.000290469     0.349279      76.7101 
0.000844141     0.345185      79.9848 
0.00230164     0.365154      80.5377 
0.00195804     0.107434     -21.7271 
0.000236531     0.384412      81.0157 
0.00239129     0.381773      84.0205 
0.00357542     0.116465     -31.0271 
0.00139104     0.212689      41.2810 
0.000411495     0.199903      36.9129 
0.00257377     0.401929      84.3213 
0.00240287     0.216445      33.6901 
0.00329227     0.144435     -33.7726 
0.00215032     0.400469      87.1001 
0.000145399     0.422095      84.5935 
0.000138338     0.420705      87.2397 
0.000314315     0.279894      90.0000 
0.000742703     0.300838      93.8616 
0.000449157     0.240790      41.5891 
0.000841882     0.244605      35.0064 
0.000142201     0.322129      97.0919 
0.000549023     0.325253      100.636 
0.000885701     0.250509      28.6379 
0.00147377     0.349279      103.290 
0.00162132     0.241454      24.4145 
0.00118571     0.161670     -29.7779 
0.000441426     0.369026      102.567 
0.00154926     0.373757      105.487 
0.00120171     0.253192      18.4886 
9.59748e-05     0.172194     -35.4216 
0.00122910     0.506166      80.8728 
0.00133386     0.188432     -31.9812 
0.000999795     0.392593      104.727 
0.00193360     0.904347      144.899 
0.000344188     0.247514      14.0362 
0.000608774     0.266484      13.0188 
0.000466164     0.398226      107.547 
0.00125581      1.24365      94.6029 
0.000494690     0.178866     -26.6725 
0.000722459     0.526180     -171.223 
0.00174158      1.54031      91.4795 
0.00124476     0.649334      33.6901 
0.000589553      3.11619      111.456 
6.28639e-05     0.503350      83.1504 
0.00205151      4.73186      111.577 
0.00176899      3.09022      111.256 
0.000345160     0.243395      9.40424 
0.000453060     0.412220      104.011 
0.000558773     0.665655      32.7585 
0.000896772     0.189835     -18.4349 
0.00151119     0.506166     -170.873 
0.00118076      4.98202      154.052 
0.000106700     0.483985      82.8750 
0.000515267     0.876751      145.249 
0.000157530     0.215843     -111.838 
5.11168e-05     0.220795      5.26495 
0.000559998     0.223834     -116.479 
0.000147412     0.463888      82.5646 
0.00189013     0.892851      145.963 
0.000664490     0.822239     -41.0777 
0.000577909     0.461703      85.0585 
0.000221318     0.204262     -11.2274 
0.000922921      5.00025      154.154 
4.37610e-05      1.80197      87.4462 
0.000522169     0.837618     -40.1670 
0.00140786      1.80118      88.0901 
0.000233105     0.216445     -123.690 
0.000471399      1.50871      145.251 
0.000150990      4.88848      108.360 
0.000225568      3.73619      119.860 
0.000319239      4.75719      111.709 
0.000107654      4.97352      154.255 
3.71284e-05      3.81064      116.161 
0.00174339      3.87629      77.1825 
0.000543111      1.49272      144.824 
3.64897e-05     0.184432     -12.4530 
-0.000710150      3.01708      104.593 
0.000471468      3.78354      116.021 
0.000338419     0.440193      87.3620 
3.58204e-05     0.219863      0.00000 
0.000104829     0.809071     -39.9961 
0.000415745     0.228306     -127.925 
0.000709442     0.543603     -173.660 
0.000295426      3.72614      119.590 
0.000222298      5.24059      158.037 
6.90080e-05      5.04705      151.610 
0.000566109      5.06488      151.719 
0.000129683     0.240124      0.00000 
0.000197884      5.00119      82.6468 
0.000344094      4.85754      107.987 
0.000275053     0.627636      37.2261 
0.000331271      4.75001      111.490 
0.000249738      4.98374      82.3860 
6.33585e-05     0.170734     -20.5855 
3.16310e-05      1.22277      93.7650 
6.19182e-05      1.24224      93.7059 
0.000286899     0.420705      92.7603 
0.00114425      1.52035      144.623 
-0.000295586      4.87531      76.4792 
0.000220164     0.260423      4.46202 
0.000813711      1.22161      92.8167 
0.000972143      4.98109      82.6170 
0.000115962      4.96449      153.954 
0.000173102      5.30692      75.5983 
5.92059e-05      3.75312      119.712 
2.94029e-05     0.486913     -170.509 
0.000976492      3.67193      85.3112 
0.000619573      3.74312      119.443 
5.77242e-05      5.03780      151.805 
0.000138605     0.240790     -138.411 
0.00106487      5.05567      151.914 
-0.000779547      4.88009      76.2479 
-0.000789608      3.34720      130.636 
0.000474065      5.31199      75.3866 
0.000105871     0.632576      34.7080 
0.000724250      1.80062      88.7344 
0.000146773      5.25868      158.117 
0.000156199      4.74262      111.263 
0.000180047     0.226037     -135.000 
5.25277e-05      4.94629      153.851 
0.000572544     0.523472     -173.415 
0.000312802     0.909711      146.677 
5.22920e-05     0.141141     -45.0000 
0.000373944     0.420217      90.0000 
9.95652e-05     0.835188     -42.0867 
2.52408e-05      4.95525      153.641 
0.000118599     0.616029      35.7811 
0.000143693      4.76886      111.401 
7.23849e-05     0.128090     -51.1829 
0.000114944      4.93711      153.536 
0.000208292     0.212689     -131.281 
-0.000250447      3.32814      103.203 
0.000114453     0.280627      4.14019 
0.000251586      4.97853      82.8482 
0.000156471     0.848901     -43.1016 
-0.000223524      2.90044      118.866 
0.000243123      3.09734      111.593 
0.000132784      4.76151      111.174 
0.000196177      3.67033      85.6265 
6.63145e-05      5.26098      79.9291 
2.21340e-05     0.116465     -58.9729 
8.66322e-05      5.30791      74.7044 
8.58614e-05      4.96175      82.5880 
6.43038e-05     0.199903     -126.913 
6.43074e-05      5.25748      80.1465 
2.15668e-05     0.126477     -71.6725 
2.15740e-05      4.83203      107.833 
2.14164e-05     0.300155      0.00000 
2.13192e-05     0.600310      36.8699 
2.12000e-05      5.04616      152.116 
2.12224e-05     0.561200     -175.936 
-0.00260009      5.18209      35.1008 
-0.00134446      10.4748      145.189 
0.00134603      9.55191      75.3240 
0.000281881      5.14960     -144.645 
-0.00104202      4.26438      29.8087 
-0.00119004      11.4132      45.4981 
0.00186705      9.51254     -40.9954 
0.000643889      2.48922     -135.647 
0.000245811      5.13309     -144.514 
0.000949068      8.78329      153.203 
0.00106129      10.2907     -59.6467 
0.000821552      5.16135     -144.461 
-0.00143743      8.06348     -73.7221 
0.000678812      13.2652      42.3727 
-0.000477500      8.07816      128.062 
0.000239524      9.48204      173.461 
-0.000665410      8.73616     -53.4697 
0.000465402      2.50375     -135.971 
-0.000120217      5.16614      35.2252 
0.00116850      10.7036     -17.2841 
-0.000119299      8.08769     -73.6282 
0.000443056      9.56568      75.4710 
0.000747732      13.2516      42.3080 
-0.000229651      4.24681      29.9445 
-0.000702228      2.81345      119.847 
-0.000900891      10.4582      145.125 
0.000897669      9.46191      173.447 
-0.000890414      8.06569      127.949 
-0.00104938      4.25471      29.5807 
0.000422263      2.51781     -136.280 
-0.000310894      2.53294     -158.703 
0.000896025      2.24626     -28.1659 
0.000668266      14.0023     -45.9250 
0.000750398      9.81232      158.352 
-0.000567476      9.20593     -50.4671 
-0.000105207      4.02195     -102.927 
-0.000841732      7.25088     -58.7627 
-0.000384747      2.84009      119.993 
0.000101771      8.39824     -95.4656 
0.000283827      9.57078      75.3536 
0.000740571      8.80138      153.262 
0.000639342      5.14488     -144.330 
0.000196147      10.9724     -127.369 
0.000193834      2.53249     -136.597 
0.000969093      7.81740     -152.911 
-9.86765e-05      7.62932     -15.8215 
-0.000189548      4.01763     -102.655 
0.000282723      3.49745     -75.0931 
0.000363083      2.54725     -136.910 
-0.000364763      10.1068     -167.313 
-0.000623007      3.30842      103.283 
9.57798e-05      12.3016     -129.592 
-0.000368848      9.84911      23.9638 
0.000268720      8.40020     -95.6031 
0.000624739      4.79846      112.286 
-0.000357287      2.47618     -99.7706 
-0.000274318      1.01006     -7.98563 
0.000269615      10.3283     -59.5131 
0.000268902      10.9761     -127.226 
-0.000353793      10.1041      52.7199 
0.000268185      12.3145     -129.665 
-0.000181326      8.74779     -53.3670 
-9.19689e-05      9.34930     -122.329 
8.99831e-05      2.57483     -136.889 
0.000175754      2.29054     -28.1266 
-0.000173534      8.22916     -30.3670 
0.000257730      10.6843     -17.3163 
0.000172884      8.79640      44.8134 
-0.000171466      9.34306     -122.500 
0.000171339      3.50272     -74.7729 
-0.000170020      4.01324     -102.373 
0.000253220      8.93930      111.800 
8.62003e-05      11.4087      119.398 
-0.000253669      9.83856      24.1156 
-0.000168255      4.50960      146.030 
-0.000168844      5.19868      34.9724 
-0.000168293      5.38874     -135.750 
-0.000251111      11.5180      54.1850 
8.50575e-05      11.4843     -28.8426 
0.000166909      2.58966     -137.196 
8.46613e-05      2.30842     -27.8895 
-8.43603e-05     0.990000     -8.14853 
-8.38978e-05      2.51408     -158.535 
-0.000620147      11.5294      129.157 
0.000117462      11.4183      119.483 
8.30604e-05      9.71639      3.30280 
8.23083e-05      9.19229      8.12812 
-8.20502e-05      10.3589      22.3571 
-0.000811568      4.03120     -103.488 
-0.000235938      10.3511      9.11817 
-0.000738117      4.82029     -146.505 
-0.000838065      4.03580     -103.757 
-0.000112750      10.0299      8.48413 
-0.000523392      9.90361     -74.4190 
-0.000770958      10.3542      9.22476 
0.00122743      8.16528      161.432 
-0.000404094      9.99356      8.63266 
0.000391428      11.3420     -39.2731 
0.000103372      14.2849      45.6810 
-0.000196740      11.5039      129.001 
0.000565760      9.70259      135.833 
0.00114898      14.2985      45.6251 
0.000772315      9.82345      157.873 
0.000274558      7.80037      179.708 
9.45128e-05      9.74526      135.917 
-0.000629565      9.90887     -74.3103 
-0.000427111      11.5166      129.079 
-0.000178741      8.45424     -40.5870 
-0.000176873      9.97660      8.76517 
-0.000251761      11.2467      140.194 
-8.96747e-05      8.82519      134.266 
-8.94667e-05      4.94009      67.3808 
-0.000468206      4.79285     -146.579 
-0.000170321      9.95957      8.89385 
0.000322005      2.25406     -27.4778 
-0.000164060      4.92925      67.0728 
0.000363369      4.39641     -17.1948 
0.000231469      7.84027      179.561 
-0.000491175      8.46906     -40.5011 
-0.000157479      8.83935      134.360 
-0.000296968      9.87487      24.0213 
-0.000227240      12.1507      55.0547 
0.000346646      13.2789      42.4373 
-0.000405986      8.40486      144.004 
-0.000223172      9.97959      8.87587 
-0.000213055      5.52875      95.8112 
0.000344494      12.8270     -135.318 
-0.000392804      13.9867     -135.057 
-0.000211352      10.2520      177.206 
-7.39514e-05      4.92139      67.2901 
-0.000210435      8.80560     -171.117 
0.000565604      7.28741     -68.9261 
0.000209780      8.96073      90.5134 
0.000201836      10.2527     -59.7849 
0.000209924      3.70558     -123.771 
7.15204e-05      4.92399     -52.7599 
-0.000138310      10.1129     -135.881 
-0.000313299      9.35157      24.6464 
-0.000136144      11.2207     -59.8255 
-0.000187469      9.72727     -139.167 
-6.89909e-05      11.6938     -149.927 
0.000134248      4.93628     -52.5727 
-6.88502e-05      3.77991     -179.397 
-6.88117e-05      8.88165      134.452 
0.000233408      13.8452     -42.4235 
-0.000133362      5.41687     -135.752 
-0.000478087      9.47370     -104.298 
0.000229338      2.28140     -27.6945 
-0.000192587      9.74402     -44.9189 
-0.000295099      11.4135      45.6366 
-0.000341892      3.76040     -179.394 
-0.000241578      9.89338      23.9735 
0.000302403      11.3297     -129.197 
-0.000177571      12.1457      54.9216 
-6.49283e-05      11.2041      53.2721 
-0.000182826      2.49876     -100.136 
6.45218e-05      8.12395     -115.050 
-6.43585e-05      10.3175      9.37189 
0.000341378      3.71105     -123.353 
0.000126468      8.96093      90.6381 
-0.000121895      8.13230      145.720 
-0.000349783      10.1275     -135.961 
6.36492e-05      9.00334     -34.5007 
-0.000179302      8.89585      134.545 
0.00136516      12.1041      126.736 
-0.000578982      11.2309     -59.7361 
-0.000177401      11.5016      54.1260 
0.000122876      4.92021     -52.4293 
0.000120871      6.06080      15.5040 
-0.000174308      11.6841     -150.010 
6.22102e-05      9.83462      158.026 
-0.000119693      10.2982      9.38957 
-0.000118333      11.1920      53.3552 
-5.94387e-05      5.52681      95.6100 
-5.91984e-05      5.41657     -135.449 
-0.000115130      5.22144      130.337 
-0.000109199      8.82562     -171.138 
0.000573828      12.8409     -135.379 
-0.000220696      9.75837     -44.8349 
0.000219349      8.94067      90.6396 
-5.77510e-05      11.5418      129.232 
-5.78621e-05      10.7404      57.3170 
0.000572257      4.93259     -52.2427 
0.000359616      11.2490      114.695 
-0.000107797      9.91437     -74.1976 
-0.000305421      8.45592     -40.3967 
-0.000207781      9.24088     -47.0171 
0.000103444      9.84517      158.178 
-0.000267072      11.5137      129.221 
0.000432003      8.14608      161.386 
-0.000209197      2.01200      52.6685 
0.000876896      11.9247      49.1465 
5.51572e-05      12.0428     -50.2557 
-5.48891e-05      9.94349     -168.984 
0.000119788      8.95951     -34.5419 
-5.45624e-05      10.2782      9.40800 
5.43908e-05      7.29968      5.97725 
-0.000104062      5.40237     -135.602 
-0.000106168      3.24607      67.5493 
0.000252066      12.0558     -50.1816 
-0.000241954      9.91190      23.9259 
5.34368e-05      6.04128      15.5553 
-0.000284229      2.49540     -99.6946 
-5.33563e-05      5.23458      130.506 
-5.32990e-05      8.19423     -30.5102 
0.000204458      11.3169     -129.117 
-0.000101081      10.7299      57.4047 
-0.000313022      11.1962      53.5003 
-0.000103285      8.46536      144.132 
0.000295492      7.27744      5.83522 
-5.24543e-05      11.4271      45.5667 
5.24105e-05      3.22239     -74.1481 
5.23028e-05      11.7316     -49.4929 
0.000194820      8.37745     -51.1045 
0.000102587      11.4932      119.732 
5.17215e-05      5.31335      48.5096 
-0.000178049      9.95571     -138.015 
-5.12097e-05      6.07286      137.534 
-5.12584e-05      5.24776      130.674 
-0.000495095      7.23421     -58.6826 
-0.000233351      3.23867      67.8683 
0.000100374      12.8655     -141.436 
5.08256e-05      11.3886     -39.0820 
9.96997e-05      10.2804     -59.7442 
0.000186735      9.80354     -95.3846 
-9.85395e-05      10.1265     -135.802 
5.06245e-05      13.2921      42.4993 
0.000441721      12.4318      51.7307 
9.71028e-05      9.68860      135.753 
-5.00069e-05      10.2582      9.42649 
-4.99051e-05      12.4614      136.105 
-9.57996e-05      6.88798     -84.8372 
4.95956e-05      7.92703      38.5472 
-4.94839e-05      4.62076     -146.653 
4.94643e-05      5.25947     -11.1801 
-0.000997688      11.4986      129.282 
-4.93351e-05      5.27377      131.002 
0.000271804      8.97621     -34.4686 
4.91302e-05      10.5727     -34.0499 
0.000133170      10.4996     -19.1239 
0.000325088      5.95650     -142.092 
0.000300854      3.48654     -73.3279 
-4.83487e-05      9.77275     -44.7511 
-9.34449e-05      9.49260     -104.269 
9.56650e-05      9.09642      8.34333 
9.53426e-05      7.26123     -69.0178 
-0.000140014      8.52590      144.258 
9.36939e-05      9.47902     -35.4691 
0.000178299      8.94092      90.7694 
0.000182495      10.5450     -34.0237 
-4.79821e-05      10.4425      133.136 
0.000266277      11.3320     -129.055 
-0.000140894      5.32854      131.346 
9.34144e-05      10.3081     -59.7036 
4.76271e-05      8.05887      170.140 
0.000266860      12.8813     -141.492 
-4.70218e-05      6.85188      142.829 
-0.000190255      5.34195      131.509 
-0.000163238      6.09156      70.4312 
-0.000220271      10.2436     -91.5657 
0.000134749      12.0408     -50.1222 
8.89772e-05      11.4655      119.694 
-4.62470e-05      12.1574      54.8434 
-8.62978e-05      2.00851      51.8885 
4.61865e-05      11.2575      114.788 
-8.84441e-05      8.82876     -171.008 
4.60443e-05      12.0688     -50.1078 
0.000221421      9.13286      8.18137 
-9.04669e-05      5.38792     -135.451 
9.00063e-05      6.81076      73.8014 
-0.000221587      10.4144      145.088 
-0.000256393      10.2222      9.57088 
-8.98962e-05      6.86803      142.931 
-0.000129855      10.4139      133.131 
-0.000130962      3.99796      62.9252 
-8.59369e-05      9.33384      24.6963 
4.53126e-05      11.7443     -49.4205 
-0.000125278      9.74410     -44.7504 
0.000127968     0.899141      147.716 
4.50391e-05      13.5335     -41.3449 
4.47245e-05      10.3318     -25.8206 
-8.80413e-05      11.8138     -149.700 
8.79309e-05      7.80004     -152.846 
-4.44994e-05      9.91991     -74.0850 
-4.44770e-05      9.53463     -63.5983 
-0.000168659      5.35490      131.666 
-8.67349e-05      14.0011     -135.115 
-4.41181e-05      9.72530     -139.005 
-0.000203992      8.26269      1.38944 
0.000537319      7.94620      106.977 
-4.37945e-05      5.19506      60.4727 
4.37420e-05      9.80166     -95.2667 
0.000354319      14.3127      45.5671 
-4.37539e-05      11.4897      54.2078 
4.33019e-05      6.09379      15.2205 
-4.32336e-05      11.2623      140.260 
-0.000283796      6.86780     -84.8220 
-0.000168538      10.8701     -156.121 
0.000206781      10.3250     -59.7582 
-4.32978e-05      6.08782      137.663 
0.000125092      8.38972     -51.0009 
0.000457291      9.54720     -78.6450 
0.000190596      2.75309     -139.721 
0.000168664      12.0538     -50.0483 
0.000271792      9.11281      8.19949 
4.28706e-05      11.4195     -38.9562 
0.000163942      4.11063      18.4316 
-4.27070e-05      10.0915     -167.176 
-4.24758e-05      11.9649      44.3241 
4.24989e-05      13.5482     -41.2904 
0.000269419      6.57637      81.2514 
-4.23717e-05      8.58604      144.386 
-0.000306825      6.82455      142.860 
-0.000162906      4.29893      29.5452 
-0.000646385      10.3978      145.024 
-4.18411e-05      5.94650      7.14744 
-8.18560e-05      9.50746     -104.125 
0.000223875      12.8776     -141.368 
4.15050e-05      7.93207     -33.6931 
-0.000302720      8.60252      144.465 
0.000120421      12.8972     -141.548 
-7.68875e-05      8.47136     -40.3079 
-0.000117895      11.8062     -149.569 
7.94636e-05      10.3494     -25.7736 
0.000596773      2.73767     -139.446 
8.10992e-05      13.5049     -41.3372 
-0.000291309      11.2348     -64.2565 
0.000334613      11.4559      119.609 
0.000159890      12.0252     -50.0603 
-8.06844e-05      11.1799      53.4385 
4.06682e-05      7.91489      38.4367 
-0.000458313      5.92896      7.36607 
-4.05891e-05      9.92527     -73.9767 
-0.000410785      10.8780     -156.027 
7.95862e-05      5.01767      153.228 
-3.99315e-05      4.24022      64.2829 
-0.000260698      10.2023      9.58980 
7.88369e-05      12.0317     -124.298 
0.000655065      11.3935      131.299 
-3.97490e-05      6.08243     -117.406 
-3.96246e-05      2.49207     -99.2354 
0.000114881      10.4804     -19.1601 
0.000114412      8.40547     -51.0878 
-7.65618e-05      10.4005      133.053 
-0.000114675      9.92973      23.8803 
-3.92713e-05      5.38830     -135.152 
-0.000150693      10.2442     -91.6790 
-7.58416e-05      9.71002     -138.926 
-3.91138e-05      11.4783      54.2868 
7.66472e-05      9.84929      158.437 
-0.000187503      9.74461      83.3982 
0.000223377      13.5201     -41.2805 
-0.000144962      10.9047     -44.3309 
-7.59966e-05      5.42304      91.9031 
0.000111595      9.82109     -95.2563 
0.000114393      10.3523     -59.7214 
0.000152359      12.0383     -49.9864 
-7.61007e-05      6.10281      137.791 
-3.86182e-05      8.96560     -173.083 
-3.86869e-05      9.38033      24.4349 
3.86253e-05      9.96566      102.754 
0.000287368      12.0431     -124.377 
7.38196e-05      8.75400      45.2778 
-0.000111216      2.51538     -99.6169 
-0.000302419      4.31657      29.4126 
0.000248976      5.04456      153.134 
3.80613e-05      4.12376      18.0855 
3.79670e-05      8.19918     -141.540 
-3.78513e-05      11.4665      54.3690 
0.000111045      11.3350     -128.911 
3.76584e-05      10.5618     -33.9622 
-3.76176e-05      11.2678     -59.6115 
0.000218790      7.82665     -152.779 
0.000144321      8.41821     -50.9805 
-3.73538e-05      14.0150     -135.289 
-7.34401e-05      4.23085      63.9167 
3.72566e-05      8.93553     -77.9842 
3.72231e-05      11.5800     -28.4682 
-3.70466e-05      11.1683      53.5189 
-0.000178560      11.5422     -58.6785 
7.22686e-05      11.4282      119.571 
-0.000211137      6.84664     -84.9699 
0.000354091      12.0097     -49.9982 
-3.68955e-05      6.09150     -117.155 
0.000176935      10.3698     -59.7779 
-0.000171301      8.24243      1.39286 
3.69213e-05      4.23287     -56.7607 
0.000141928      10.5007     -47.1603 
-7.18692e-05      9.92013      24.0329 
0.000141564      8.96176      112.156 
-0.000212248      10.4610     -78.1952 
-3.65811e-05      11.4275      54.4741 
-0.000422058      11.5110      129.357 
-0.000104757      4.30896      29.7795 
0.000228974      4.10450      18.1733 
3.62441e-05      9.86814      158.480 
-3.61726e-05      9.75850     -44.6667 
3.61612e-05      9.98542      102.729 
-0.000208590      11.3762      54.6609 
3.61246e-05      8.93961     -77.8619 
7.02725e-05      3.95948     -40.2880 
6.97520e-05      4.24360     -56.5404 
0.000104948      12.4471      51.7863 
0.000104569      10.4556     -19.0942 
-3.58360e-05      11.3875      54.5808 
0.000104538      8.99230     -34.3982 
3.54603e-05      11.4352     -38.8923 
-0.000103747      10.2448     -91.7881 
-6.99051e-05      9.76243      83.5300 
0.000103918      10.6270      72.5873 
-6.49748e-05      2.53866     -99.9746 
-3.51781e-05      9.78662     -44.6707 
-3.51292e-05      11.8164     -149.484 
3.50990e-05     0.888484      148.820 
-0.000102119      7.24437     -58.5507 
-6.92111e-05      4.22198      64.1636 
-3.48306e-05      10.0189      8.84078 
3.48731e-05      6.55403      81.4005 
3.47979e-05      7.40351      28.9187 
-6.85853e-05      11.7996     -149.436 
-3.47954e-05      9.17472     -50.3060 
-6.88834e-05      2.53536     -99.5404 
0.000163104      7.84467     -152.847 
3.44940e-05      2.98069     -54.2812 
3.45012e-05      10.0052      102.703 
-6.86590e-05      10.3862      145.116 
0.000102560      12.1318      126.757 
-6.84412e-05      11.4938     -58.8816 
3.42830e-05      11.4504     -38.8310 
3.42335e-05      8.43338     -51.0639 
-3.42160e-05      8.97639      37.3058 
3.42192e-05      13.4920     -41.2750 
-3.41373e-05      10.9047     -155.973 
-3.42135e-05      10.4167     -118.435 
3.40523e-05      7.38578      28.9947 
3.40312e-05      9.82297     -95.3739 
-3.39150e-05      8.66255      144.583 
3.38279e-05      8.92041      90.6410 
3.37974e-05      9.14914      73.2296 
-3.39450e-05      10.2057      9.70195 
-3.37364e-05      6.80841      142.758 
3.36688e-05      10.6328      72.4870 
3.36955e-05      8.94390     -77.7350 
3.37084e-05      9.84127     -95.2455 
0.000112834      11.3091      154.884 
0.000146822      10.4687     -19.2999 
3.87449e-05      8.15257      161.252 
0.000140258      8.10840      161.297 
3.70732e-05      7.85394     -152.715 
0.000234418      12.8687     -141.563 
-0.000134872      8.46902      127.708 
-0.000104949      14.0607      136.269 
7.01052e-05      7.86271     -152.914 
-6.88893e-05      11.1846      53.5806 
-0.000165791      11.7716     -129.830 
0.000161956      9.94663      102.779 
3.45714e-05      13.2359      42.4887 
-6.74141e-05      8.83010     -171.797 
3.45101e-05      4.90476     -52.2903 
-6.68996e-05      9.21331     -47.2015 
3.35272e-05      4.22180     -56.9906 
3.35049e-05      8.22706     -141.514 
-0.000128137      4.77732     -67.0838 
6.56921e-05      4.89239     -52.4780 
6.58377e-05      4.06866      73.4333 
-0.000190651      13.8010     -47.4084 
0.000218512      10.3800     -59.6813 
-0.000126600      3.90877      161.196 
0.000123730      5.51810     -81.6649 
0.000124049      10.4429     -19.2318 
-6.32246e-05      2.56144     -100.345 
9.28720e-05      8.42066     -51.1711 
6.29545e-05      13.4488     -41.3219 
3.19458e-05      7.76809      131.032 
6.32337e-05      5.49880     -81.6355 
6.27823e-05      13.2222      42.4240 
0.000153884      13.8721     -42.5447 
-3.18189e-05      9.13166     -50.2408 
-3.17279e-05      3.32357      102.863 
-3.16193e-05      8.84729     -171.945 
-6.19798e-05      13.3157     -47.0096 
-3.15371e-05      14.0888      136.265 
-9.21686e-05      10.0326     -20.7828 
6.11013e-05      4.08808      73.5143 
9.18968e-05      6.57936      81.0834 
-9.15233e-05      8.95047     -172.809 
-3.12900e-05      9.20006     -47.2906 
6.12475e-05      10.4836     -46.6242 
6.05113e-05      2.66432     -82.2305 
-9.07569e-05      10.4600      132.599 
-6.09975e-05      10.8902     -44.4054 
6.10388e-05      9.52291      75.0308 
-6.13914e-05      9.11872     -50.3387 
-6.04880e-05      6.07318      70.3695 
-5.99846e-05      14.0747      136.210 
-3.05313e-05      9.81554      83.9176 
-6.04724e-05      3.31928      102.534 
3.03353e-05      4.10751      73.5945 
-3.03194e-05      11.7846     -129.906 
3.03229e-05      3.42907     -73.0402 
-3.02491e-05      6.07347     -117.243 
-3.02184e-05      2.55788     -99.8989 
3.02109e-05      4.88053     -52.6597 
-3.00859e-05      8.87100     -170.132 
3.00164e-05      12.9455      142.279 
-3.00020e-05      8.65582      66.8712 
2.99461e-05      7.48611      163.551 
2.99431e-05      6.79700      73.5898 
-2.99747e-05      6.83634      142.730 
2.99829e-05      12.4072      51.8749 
-5.94147e-05      4.05151      63.3116 
2.98878e-05      11.2041     -53.2721 
-2.97710e-05      6.74824     -84.7300 
2.97830e-05      7.96101      179.136 
2.97036e-05      13.2073      42.4833 
-2.96681e-05      13.3582     -46.9417 
-2.96190e-05      9.79757      83.7873 
-2.96229e-05      3.88960      161.100 
2.95784e-05      3.40970     -72.9408 
2.94880e-05      6.24319      14.6626 
2.94601e-05      7.92134     -85.8007 
2.95133e-05      2.99716     -54.5073 
! Tentative model.
! Flux (Jy) Radius (mas)  Theta (deg)  Major FWHM (mas)  Axial ratio   Phi (deg) T \
! Freq (Hz)     SpecIndex
3.16570e-05      13.4486     -41.3222 
