! Center RA: 12 21 31.69052,  Dec: +28 13 58.50019 (2000.0)
! Established model.
! Flux (Jy) Radius (mas)  Theta (deg)  Major FWHM (mas)  Axial ratio   Phi (deg) T \
! Freq (Hz)     SpecIndex
  0.101070      0.00000      0.00000 
 0.0121598    0.0250000      180.000 
 0.0130949    0.0250000      90.0000 
0.00164182    0.0500000      90.0000 
0.00438809    0.0353553     -135.000 
0.00459540    0.0750000      90.0000 
0.00203210    0.0250000     -90.0000 
0.00340765    0.0559017     -116.565 
 0.0126991     0.100000      90.0000 
0.00621222    0.0500000     -90.0000 
0.000430231     0.103078      104.036 
0.00163155     0.276134      95.1944 
0.00648851     0.279508      100.305 
0.000499023    0.0353553     -45.0000 
0.00533463     0.125000      90.0000 
0.00645375    0.0559017     -63.4349 
0.00324446     0.427200      110.556 
0.000883957     0.745822      103.570 
0.000149069     0.436606      113.629 
0.000404438     0.450694      109.440 
0.000139574     0.728011      105.945 
6.79032e-05     0.680074      107.103 
0.000382279     0.459619      112.380 
0.000373949     0.656220      107.745 
0.000561096     0.752080      105.422 
! Tentative model.
! Flux (Jy) Radius (mas)  Theta (deg)  Major FWHM (mas)  Axial ratio   Phi (deg) T \
! Freq (Hz)     SpecIndex
0.00122752    0.0500000      90.0000 
7.11352e-05    0.0250000      0.00000 
0.000822878    0.0353553     -45.0000 
0.000333446    0.0750000      90.0000 
0.000323528     0.632456      108.435 
0.00116847     0.608790      109.179 
0.000194274     0.419076      107.354 
0.000627876     0.261008      106.699 
0.000304092     0.735272      107.819 
0.00111765     0.443001      106.390 
0.000914857     0.100000      90.0000 
0.00183864     0.759111      107.241 
0.000329358    0.0500000     -90.0000 
0.00109276    0.0559017     -63.4349 
0.000524509     0.269258      111.801 
0.00201171      1.08541      104.676 
0.000111381     0.427200      110.556 
0.000176048    0.0790569     -108.435 
0.000130862      3.00884      118.269 
0.000458431      2.99708      117.848 
0.000130455    0.0707107     -45.0000 
0.000160892     0.583631      133.264 
0.000217948     0.127475      78.6901 
0.000686929     0.125000     -126.870 
0.000271239     0.425735      86.6335 
3.22230e-05     0.254951      101.310 
0.000120698      2.82013      114.066 
0.000231535      3.14454      119.010 
0.00109896     0.601041      135.000 
8.97063e-05    0.0901388     -33.6901 
0.000495540      3.30009      114.624 
2.96571e-05     0.251247      95.7106 
5.80332e-05      2.79732      114.274 
2.88465e-05     0.111803     -26.5651 
0.000522212      2.81003      113.600 
0.000110232     0.158114     -18.4349 
0.00163080      7.25142      109.747 
5.43183e-05     0.302076      114.444 
0.000426694     0.427931      83.2902 
7.90460e-05      5.67946      110.349 
0.000175146      3.16643      118.791 
0.00132162      5.68820      110.586 
0.000333349     0.182003     -15.9454 
0.000672239      3.48828      116.381 
4.85159e-05     0.279509      116.565 
0.000198154      2.78714      113.806 
4.72653e-05     0.601041      106.928 
0.000160431      2.87924      110.323 
0.000102934     0.225000      90.0000 
0.00112497      12.6607      127.458 
0.000937144      1.22729      123.366 
0.000769002      11.0691      117.144 
0.000723949      3.17854      119.186 
0.000488613      6.43996      104.845 
9.89297e-05     0.152069      80.5377 
0.000489111     0.206155     -14.0362 
9.64595e-05      2.87065      109.855 
9.62163e-05      11.0805      117.259 
0.000133856     0.790569      108.435 
0.000326002      6.46964      104.090 
0.000465762      6.38788      108.719 
0.000982761      4.55206      115.017 
0.000165547     0.201556     -7.12502 
3.67314e-05     0.246221     -156.038 
0.000239103      1.10962      104.349 
0.000119025     0.525000      180.000 
0.000195716      6.81515      101.640 
7.07914e-05      5.46312      107.855 
0.000265609      12.3512      127.682 
0.000311268      6.16847      109.904 
0.000318641     0.783023      106.699 
0.000409152      8.52181      113.331 
3.45141e-05      11.2269      117.592 
0.000603800      8.01912      118.083 
0.000133271     0.160078     -128.660 
0.000239650      5.45550      107.605 
3.20172e-05      2.89418      109.687 
0.000139012      11.2385      117.705 
0.000224088     0.176777      81.8699 
6.19920e-05     0.269258     -158.199 
0.000246423      3.80789      113.199 
7.65269e-05      5.42707      114.204 
0.000218116      5.15855      98.6406 
3.05808e-05      5.13383      98.6825 
5.72781e-05     0.406971      79.3803 
2.92705e-05     0.201556      82.8750 
0.000160926      7.11042      110.155 
0.000267804      12.3360      127.590 
0.000127802      5.10912      98.7248 
0.000202863      9.42301      106.175 
0.000349968      5.43737      114.444 
0.000363362      3.19081      119.578 
5.61814e-05      8.28530      108.107 
4.25308e-05      8.51194      113.176 
2.62620e-05     0.585235      109.983 
4.16385e-05     0.257391     -150.945 
0.000210146      8.54477      113.265 
0.000245310      11.2606      117.646 
0.000294043     0.602080      131.634 
0.000143494      8.04254      113.058 
3.89352e-05      6.46360      103.875 
0.000143386      8.14574      105.486 
0.000416694      4.77507      117.773 
0.000126758     0.550000      180.000 
0.000160248     0.279509     -153.435 
0.000136110      8.30907      108.053 
0.000202757      5.08441      98.7676 
0.000239888      6.39595      108.931 
6.22037e-05      1.19635      79.1597 
0.000203600      4.07983      109.323 
8.92983e-05      2.80011      113.131 
0.000390471      3.52181      116.565 
0.000306570      8.13910      105.317 
0.000100541      1.25100      92.2906 
0.000309713      2.68386      115.372 
9.73489e-05     0.145774     -120.964 
6.94681e-05      12.3144      128.405 
3.44932e-05      6.48195      103.607 
0.000184255      5.18327      98.5991 
0.000149880      7.52629      108.194 
0.000106233      1.17180      78.9298 
0.000105610     0.618971      133.363 
8.46626e-05      7.10185      109.966 
0.000162215      5.05501      106.374 
9.43621e-05      8.53493      113.110 
9.39424e-05     0.302076      24.4440 
1.11333e-05     0.594243      112.249 
5.26715e-05      7.77215      115.329 
2.13308e-05     0.467039      105.524 
0.000114305      12.2989      128.314 
3.16784e-05      6.48787      103.822 
2.12758e-05     0.776209      104.931 
8.14632e-05      9.11133      106.744 
7.77424e-05      6.43360      104.630 
5.03526e-05      8.03092      118.240 
0.000207809      12.3207      127.498 
4.00222e-05      1.41797      99.1302 
1.97537e-05      6.70494      109.381 
1.00719e-05      5.82087      103.917 
2.96851e-05      1.24122      124.330 
1.00073e-05      9.44702      106.133 
7.54563e-05      5.67368      110.911 
9.93652e-06     0.561805      110.854 
0.000128528      5.82693      104.155 
7.82586e-05      7.02033      108.693 
0.000637910      12.6695      120.867 
0.000102396      12.6567      120.770 
0.000804878      11.7394      116.565 
0.000399316      7.67537      90.5599 
0.000786560      12.5116      114.055 
0.000386064      9.92084      111.587 
8.09743e-05      11.7058      116.510 
0.000625611      10.6814      107.714 
0.000109073      9.93007      111.721 
0.000108359      9.73916      115.710 
0.000166841      7.45017      89.6155 
0.000218831      12.9442      120.527 
7.61901e-05      9.68427      115.374 
0.000528249      9.50582      121.558 
0.000621456      7.26864      125.057 
0.000235494      7.42538      89.4213 
0.000233492      4.36363      101.567 
0.000260417      8.93186      124.624 
0.000248494      10.4315      111.954 
0.000459832      12.6352      120.828 
2.48420e-05      12.5345      114.009 
9.29832e-05      7.70065      90.7441 
0.000222229      12.5674      115.953 
0.000250132      9.67358      115.241 
0.000113119      10.5889      117.412 
0.000199091      9.88449      122.082 
0.000137937      9.98205      120.225 
0.000250122      7.27504      90.1969 
0.000160208      7.20056      115.942 
0.000129119      9.11811      111.218 
2.12548e-05      4.54154      114.731 
0.000283965      4.36871      101.889 
0.000116100      10.5775      117.292 
0.000242793      4.57473      114.884 
0.000100529      3.55000      90.0000 
0.000136156      10.4083      112.006 
0.000187462      6.40410      109.142 
0.000170190      6.81015      101.434 
0.000184315      7.67565      90.7465 
9.78758e-05     0.807001      106.189 
0.000129387      9.75003      115.842 
0.000205090     0.103078     -104.036 
0.000221250      9.09481      111.275 
2.01200e-05      5.34439      116.086 
0.000127440      5.36685      115.968 
5.66736e-05      1.50748      95.7106 
0.000126532      3.37537      90.8488 
0.000160804      3.64700      96.2968 
0.000111345      2.42822      87.0492 
0.000125116      8.91768      124.492 
8.94090e-05      2.20582      107.819 
0.000106230      3.64435      95.9061 
3.66820e-05      7.02838      108.886 
7.11572e-05     0.800391      104.470 
1.83111e-05      12.1113      128.715 
6.96167e-05      2.51010      84.8572 
6.92764e-05      1.50520      94.7636 
3.47510e-05      3.18836      118.575 
3.49739e-05      6.45155      104.359 
5.18201e-05      12.0957      128.623 
3.47889e-05      6.96567      117.117 
5.14665e-05     0.958188      74.8760 
1.76302e-05     0.134629     -111.801 
5.13033e-05      5.68265      111.146 
1.75265e-05      5.06211      106.645 
5.13040e-05     0.302076     -155.556 
1.74281e-05     0.571183      113.199 
5.09525e-05      10.6653      107.883 
3.38919e-05      2.00328      119.124 
3.38019e-05      12.9658      120.471 
3.39302e-05      3.36127      85.3071 
3.38903e-05      5.17959      98.3257 
-3.35409e-05      10.4769      107.354 
1.68566e-05      12.2552      113.951 
1.68545e-05      2.40208      87.6141 
3.34424e-05     0.854400      110.556 
1.67331e-05      2.23733      108.232 
1.67133e-05      3.17648      118.179 
1.66869e-05      9.75285      113.411 
1.66396e-05      7.22305      115.856 
1.66474e-05      9.11856      106.895 
