! Center RA: 12 21 31.69052,  Dec: +28 13 58.50011 (2000.0)
! Established model.
! Flux (Jy) Radius (mas)  Theta (deg)  Major FWHM (mas)  Axial ratio   Phi (deg) T \
! Freq (Hz)     SpecIndex
 0.0821299      0.00000      0.00000 
0.000948513    0.0202604     -90.0000 
 0.0102114     0.319665      90.0000 
0.00124035     0.320306      86.3734 
0.00412932    0.0286526      45.0000 
 0.0139650     0.320306      93.6266 
0.00387975    0.0446338      63.0042 
 0.0120910     0.823954      119.039 
0.000650187    0.0896014      63.6495 
0.000632797     0.107434      68.2729 
0.00593983     0.796445      118.473 
0.00179048    0.0202604      0.00000 
0.00389150     0.126477      71.6725 
0.000531062     0.806301      119.738 
0.00454389    0.0286526     -45.0000 
0.00806350     0.145849      74.1761 
0.00478498     0.340529      93.4109 
0.000242122     0.662354      114.997 
0.00246743     0.635505      114.114 
0.00312491     0.161111      82.7757 
0.00731115    0.0446338     -63.0042 
0.00323128     0.360755      93.2195 
0.00352650     0.609116      113.217 
0.00474569     0.841065      118.394 
0.00227081     0.220795      95.2649 
0.00251151     0.380236      93.0544 
0.00102568    0.0397705     -90.0000 
0.000461225     0.240977      94.8229 
0.00363432     0.617068      114.882 
0.000787568     0.868561      118.934 
0.00151169     0.134233      63.4349 
0.00517185     0.858942      117.752 
0.00471003     0.262662      98.7088 
0.00203808     0.400469      92.8999 
0.00215452    0.0600310     -90.0000 
0.00105386     0.653108      117.360 
0.00252606     0.420705      92.7603 
0.00414837    0.0633577     -71.3505 
0.000432936     0.689870      119.521 
0.00288116     0.116465      58.9729 
0.00246608     0.876255      117.158 
0.00120419     0.726874      121.491 
0.000458469     0.700075      120.964 
0.00189810      2.15697      107.262 
0.00181748     0.441522      95.1680 
0.000175700     0.583302      112.144 
0.00223523     0.737659      122.833 
0.00127824     0.282706      98.0871 
0.000322095      2.12678      106.395 
0.00171886     0.894329      116.565 
0.000233868     0.550320      109.102 
0.000644171      2.02851      102.520 
0.000427954     0.128090      51.1829 
0.000144429     0.544027      107.085 
0.000553565     0.113549      45.0000 
6.87719e-05     0.513977      103.509 
6.78082e-05      2.16307      107.775 
0.00100197     0.180093      90.0000 
0.000486175     0.200353      90.0000 
0.00133547     0.814312      117.793 
0.000183944     0.259634      90.0000 
0.000353981     0.279894      90.0000 
0.00127446     0.141777      81.7841 
0.000657966     0.300155      90.0000 
0.000240881     0.121759      80.4216 
0.000777152      2.07634      103.373 
0.00156437      2.10062      103.763 
0.00150796    0.0802914     -90.0000 
0.000141099     0.778695      119.183 
6.97586e-05     0.831621      117.166 
0.000137387     0.761721      119.899 
0.000269371     0.849697      116.542 
0.000391683     0.744225      120.676 
0.000195243     0.381773      95.9795 
0.000317973     0.867194      115.966 
0.000129087     0.424483      98.1301 
0.000125422     0.446997      100.348 
0.000298704     0.754763      121.999 
0.000122253     0.470689      102.241 
0.000639220     0.885454      115.392 
0.000118771     0.466942      99.9013 
0.000939314     0.490508      101.740 
0.000268199      2.08094      103.896 
0.000471683    0.0998015     -90.0000 
0.000108327     0.903799      114.842 
0.000411909     0.912496      115.996 
0.000488831     0.765692      123.285 
5.15797e-05      2.16871      104.426 
0.000101238      2.05664      103.504 
5.06509e-05      2.20725      104.169 
9.89193e-05      2.22690      104.041 
0.00101449     0.101837     -78.5245 
4.95142e-05      2.03767      103.632 
0.00113971     0.930071      115.469 
0.000929871     0.342244      96.6731 
0.000411291      2.01326      103.208 
0.000189658      2.23171      104.527 
0.000800230     0.509625      101.293 
4.61950e-05      1.96461      104.737 
0.000389703      2.25060      104.402 
0.000619935     0.776571      124.489 
8.83276e-05      1.95032      105.464 
0.000203087      1.93708      106.195 
4.19256e-05     0.100252      53.2159 
0.000274927      2.00873      102.645 
0.000119287      2.25573      104.901 
0.000293265      2.27531      104.770 
3.86510e-05     0.938962      116.586 
0.000985010     0.957123      116.043 
0.000712183     0.121759     -80.4216 
0.000281074      1.91763      106.364 
0.000503393     0.529508      100.864 
0.000283244     0.788220      125.703 
4.61941e-05     0.506166      99.1272 
0.000108109      2.15059      108.429 
0.000141292      2.00455      102.101 
0.000166942      2.15708      108.939 
0.000444096     0.116465      31.0271 
9.97793e-05      2.29418      104.645 
0.000785616     0.345185      100.015 
9.84270e-05     0.709570      130.411 
0.000129842      2.00040      101.533 
6.55313e-05     0.804760      124.861 
0.000831972     0.526180      98.7772 
0.000242981      2.29939      105.134 
0.000371804      1.89820      106.537 
6.29002e-05     0.832367      125.237 
0.000153300      2.16374      109.447 
0.000124082     0.694267      131.495 
0.000120699      1.98055      101.651 
0.000204205     0.848995      124.449 
8.82750e-05     0.707854      132.723 
0.000638887     0.126477     -71.6725 
0.000439550     0.975367      115.520 
8.54780e-05      2.18215      109.276 
2.88737e-05      1.99645      100.964 
2.87042e-05     0.107434      21.7271 
2.85493e-05     0.679225      132.627 
0.000240613      1.97656      101.075 
0.000722638     0.126477      18.3275 
0.000110432      2.31895      105.003 
0.000340325     0.693106      133.859 
5.56761e-05      2.17031      109.932 
2.75595e-05     0.549419      100.466 
5.42004e-05     0.860182      125.520 
0.000206020      2.18866      109.758 
0.00122135     0.546212      98.4529 
0.000153420      2.32408      105.468 
0.000247941     0.876751      124.751 
0.000195995     0.993009      115.035 
5.00020e-05      1.89253      105.949 
9.56800e-05      1.99283      100.413 
0.000460256      1.87378      106.112 
0.000162319      2.34905      105.812 
0.000185076      2.19560      110.256 
0.000226455     0.679173      135.000 
0.000177411      1.97291      100.519 
0.000307281      1.00142      116.047 
0.000352001     0.888456      125.825 
6.47705e-05      2.37889      106.606 
0.000245910      2.21461      110.074 
0.000239635     0.145849     -74.1761 
0.000122536      1.01140      114.549 
0.000361669     0.693106      136.141 
6.10006e-05     0.322129      97.0919 
6.21129e-05      2.40413      106.930 
0.000327586      1.16486      101.896 
0.000227819      1.98927      99.8390 
0.000117272      2.43531      107.687 
0.000395024     0.141777      8.21587 
5.84848e-05      1.86826      105.515 
3.86902e-05     0.360186      90.0000 
3.79860e-05      2.32384      103.444 
7.42356e-05      1.88292      102.264 
0.000164059      2.22139      110.547 
5.56812e-05     0.325253      100.636 
0.000159171      1.01966      115.547 
0.000106485     0.360755      86.7805 
0.000107491      2.46009      107.998 
0.000176682     0.900464      126.870 
1.84549e-05     0.161111     -82.7757 
5.29883e-05      2.31922      102.957 
3.61299e-05     0.200353     -90.0000 
8.50857e-05     0.306099      101.310 
0.000101610      2.07248      112.098 
0.000154245      1.18469      101.694 
0.000102744      1.87872      101.660 
6.83978e-05      2.23366      109.896 
0.000210438     0.219863     -90.0000 
8.28009e-05      1.02987      114.081 
3.35556e-05     0.134233     -63.4349 
0.000129745      2.48542      108.282 
0.000236530     0.679225      137.373 
0.000238532      2.00591      99.1699 
9.49301e-05      2.31476      102.468 
0.000302209     0.916147      126.138 
0.000137099     0.140322      0.00000 
0.000519430      1.18075      100.731 
0.000167044      2.24037      110.365 
6.42755e-05      1.86312      102.396 
0.000107982     0.362375      83.6991 
1.60576e-05     0.128090     -51.1829 
0.000235562      2.05372      112.311 
6.13881e-05     0.286260      102.105 
0.000262512     0.565518      98.1624 
1.57845e-05     0.402700      116.565 
0.000204080      1.85888      101.786 
0.000171788      1.04771      113.646 
8.24535e-05     0.141141     -45.0000 
0.000131478      2.51104      108.576 
1.49789e-05     0.375627      115.183 
1.48630e-05      3.08474      147.446 
0.000420202      3.05717      147.550 
8.43943e-05      2.31062      101.996 
0.000710901     0.240124     -90.0000 
0.000163089     0.665671      138.656 
9.47975e-05     0.381773      84.0205 
0.000120476     0.144435     -33.7726 
1.43326e-05      2.25201      109.727 
0.000194877      1.03798      115.064 
6.34374e-05     0.384685      117.915 
1.38442e-05      2.51757      109.013 
6.71129e-05      2.53603      108.869 
0.000124657      2.25867      110.193 
0.000342098      2.06150      112.832 
0.000367020     0.927787      127.111 
2.62346e-05     0.266484      103.019 
0.000123825     0.159832      0.00000 
9.06390e-05      1.85499      101.196 
0.000124976      2.32971      101.896 
0.000137800     0.585580      97.8809 
6.22287e-05     0.365154      80.5377 
4.88434e-05      1.85433      106.286 
0.000371917     0.243395      99.4042 
0.000136558      2.54240      109.285 
0.000337831      2.02218      98.5360 
0.000153908     0.652947      139.942 
2.43611e-05      2.24750      110.849 
9.55909e-05      1.83586      101.315 
5.79044e-05      1.06630      113.209 
1.23370e-05     0.608549      99.4391 
0.000144263     0.605655      97.6181 
0.000186519     0.384412      81.0157 
0.000359208      1.20066      100.551 
0.000205772      2.56825      109.563 
0.000196843     0.156126     -39.7351 
0.000366244      2.32562      101.408 
0.000110296      3.57275      97.7251 
0.000168796      1.83199      100.693 
5.20451e-05      1.10196      105.806 
0.000142184      2.26574      110.674 
0.000187179     0.161111      7.22432 
4.14682e-05     0.394577      120.515 
7.02213e-05      1.86011      106.885 
1.09270e-05     0.681013      139.782 
9.12382e-05     0.640096      141.330 
2.10686e-05     0.750414      138.243 
0.000189830      1.02856      116.565 
7.99099e-05      2.04284      113.052 
0.000128807      3.54999      97.4450 
0.000149418     0.624998      97.3810 
2.03001e-05      3.04072      147.353 
2.95183e-05     0.779022      138.124 
8.67142e-05      3.02984      147.676 
0.000190701      2.59415      109.834 
0.000196725      2.06945      113.349 
5.66482e-05      1.80840      100.182 
0.000288605     0.940150      128.096 
6.23056e-05     0.794223      139.099 
9.40111e-06     0.366905      119.396 
2.75431e-05     0.612215      141.669 
0.000391962      3.54742      97.1205 
5.04259e-05      1.09418      108.099 
0.000175555      2.99212      107.108 
0.000219914      3.01274      147.470 
0.000543279      2.66508      106.118 
7.07820e-05      1.80505      99.5720 
8.20742e-05     0.377263      122.078 
0.000101164      2.25479      111.330 
0.000108101      2.30650      101.504 
0.000233357     0.172194     -35.4216 
0.000118532      2.05086      113.573 
6.75012e-05      1.83489      106.464 
8.82149e-06     0.369026      77.4333 
0.000134444     0.627636      142.774 
7.33122e-05     0.388092      78.0600 
0.000119564      1.78178      99.0379 
0.000274864      1.21985      100.384 
0.000127436     0.645096      97.1498 
2.42328e-05     0.822239      138.922 
0.000339340      2.01927      97.9675 
0.000110026      2.61915      110.091 
0.000137301      1.84073      107.068 
6.60102e-05     0.837618      139.833 
7.72869e-06      2.27298      111.152 
0.000360974     0.181229      6.41879 
1.50807e-05      2.26196      111.791 
5.03313e-05      2.24316      111.983 
7.01602e-05     0.373757      74.5128 
7.99802e-05     0.247514      104.036 
2.14495e-05      1.10064      109.102 
6.44635e-05      2.99792      107.464 
7.81528e-05      1.77871      98.3933 
0.000104337      1.01986      118.092 
5.70130e-05      2.27098      107.956 
0.000223267      2.47564      96.4917 
9.68096e-05      2.32170      100.918 
7.22167e-06      1.10744      106.777 
9.07948e-05     0.387976      124.520 
9.36251e-05      2.98477      147.588 
4.04159e-05     0.961621      93.5791 
0.000127936      2.05874      114.071 
4.59942e-05      2.22439      112.178 
3.22805e-05     0.392593      75.2732 
2.02244e-05      3.01725      107.349 
0.000196831      1.75664      97.8567 
4.46194e-05     0.853200      140.711 
0.000221724      2.62618      110.506 
0.000283186      2.30254      101.010 
0.000157091      3.02335      107.715 
0.000250732     0.952783      129.054 
6.51289e-06      1.09540      111.415 
6.49047e-06     0.642889      95.3579 
5.49991e-05     0.960569      92.3729 
0.000142128      2.20633      112.370 
6.33861e-06     0.665204      96.9326 
0.000163337     0.663064      95.1944 
0.000122680      2.96831      147.387 
6.12796e-05      1.10718      110.056 
0.000100513     0.379669      71.5651 
0.000117753      1.23978      100.215 
1.19911e-05      1.10079      87.9295 
2.83901e-05     0.643885      143.865 
0.000190531     0.188432     -31.9812 
0.000104700      1.81619      106.638 
1.19128e-05     0.600310      143.130 
5.98565e-06      1.12103      87.9669 
1.18491e-05     0.880659      140.532 
0.000199318      3.52258      96.5195 
5.96400e-05      1.12193      86.9328 
6.01466e-05     0.896392      141.355 
0.000119992     0.496341      139.906 
8.55231e-05      2.06709      114.583 
0.000114947      1.02920      119.051 
5.59963e-06      1.10170      86.8765 
0.000131537      3.70220      98.6967 
1.07002e-05     0.399806      126.913 
2.50844e-05      2.26481      107.468 
0.000202777      1.75398      97.2010 
4.82940e-05     0.912304      142.150 
8.77639e-05      2.18761      112.571 
3.46000e-05      1.24353      101.134 
0.000153282      3.02958      108.080 
5.05115e-06     0.398226      72.4528 
8.70631e-05      1.12320      85.9007 
0.000133757      1.82209      107.248 
0.000115923     0.386554      68.7149 
7.26858e-05      2.95127      147.175 
6.43648e-05      2.07560      115.092 
4.34627e-05      1.11429      111.035 
5.17849e-05     0.372066      126.223 
7.94746e-05      1.26268      100.963 
-0.000156349     0.184432      167.547 
3.89358e-05      2.23211      112.660 
0.000143167      1.39779      109.213 
9.59461e-05      2.65228      110.763 
4.26814e-05     0.927787      142.889 
1.68380e-05      2.29894      111.423 
8.63786e-06     0.512006      141.366 
2.94346e-05      2.08395      115.578 
4.10770e-05     0.453478      138.555 
8.63619e-05      1.22602      84.3801 
0.000110668      2.03934      97.8886 
2.83956e-05      2.94074      147.494 
8.79557e-05      1.25899      100.057 
0.000114806     0.682496      95.0461 
1.60141e-05      2.06636      115.811 
0.000174306     0.944023      143.631 
0.000262897      3.95548      151.626 
0.000158928      3.94624      151.876 
7.04065e-05      4.02121      150.498 
7.10334e-05      4.03085      150.256 
0.000226575      3.91883      151.997 
9.51383e-05      4.05850      150.150 
9.23907e-06      2.03666      97.3240 
1.82364e-05      2.94707      148.038 
7.29075e-05      1.77597      97.7706 
1.78407e-05      1.38521      107.660 
9.62278e-05      2.16786      94.7653 
0.000146582      2.92990      147.828 
7.77624e-05      1.11980      108.763 
0.000101369      1.39125      108.425 
0.000134198      4.06862      149.903 
7.32549e-05     0.980812      129.194 
2.90359e-05      1.02234      120.574 
3.68918e-05     0.420241      64.6246 
4.85357e-05      2.25319      106.504 
5.53745e-05     0.184432      12.4530 
3.48439e-05      2.47801      96.9572 
6.17199e-05      3.52034      96.1918 
6.21214e-05      1.79678      106.823 
1.45036e-05     0.384386      128.660 
6.13118e-05      3.89144      152.121 
3.40619e-05      2.90680      145.645 
3.38216e-05     0.184676     -40.5508 
7.06497e-06     0.396866      130.860 
4.70184e-05     0.429314      62.1808 
3.99947e-05     0.438496      136.803 
1.96464e-05      2.21412      112.854 
1.94935e-05     0.932586      144.596 
6.50604e-06      1.11345      107.776 
6.45319e-06     0.965195      129.954 
0.000388060      1.46039    -0.794906 
0.000504418      9.83357     -50.6109 
-0.000577314      4.99813      50.1955 
-0.000438422      8.86867     -155.341 
0.000253768      1.59433     -17.5310 
0.000413846      5.28815     -107.610 
0.000397226      1.44014    -0.806089 
-0.000236310      9.75803     -6.23801 
5.02702e-05      4.88334     -72.6008 
0.000352762      8.23288      24.6964 
0.000390567      4.86401     -72.5294 
0.000261081      12.8695     -45.3780 
-0.000185626      4.49327     -123.191 
0.000133092      4.65638     -19.8395 
0.000303330      10.8108     -131.477 
0.000293866      12.5736      45.7085 
0.000175889      1.61886     -17.9814 
-0.000262636      8.08167     -58.3583 
0.000177094      9.55253      26.8871 
-0.000248109      7.34022     -22.9294 
-0.000250641      7.97055      27.6603 
0.000219269      1.61295      17.3222 
8.24644e-05      6.69139      35.0178 
-0.000298008      8.63076     -121.736 
-0.000528294      2.48323      79.3250 
0.000171657      9.71996      68.7678 
0.000288558      9.14007      89.4967 
-0.000125076      9.92371      70.9430 
8.84923e-05      10.5609     -39.2358 
-0.000125866      10.1930     -173.125 
-4.43903e-05      6.83255      15.6221 
-0.000291159      4.50439     -123.407 
0.000205442      12.3256     -41.5794 
-0.000281028      13.8364      43.3607 
-0.000283484      4.44375      168.842 
4.34459e-05      8.86747      135.641 
0.000358725      6.40652     -135.123 
8.45460e-05      4.67544     -19.7553 
0.000198720      11.0837     -36.9312 
0.000279165      11.9546     -54.3954 
0.000241242      8.83935      135.640 
-0.000158918      6.81854      15.8319 
0.000434987      13.6990      138.373 
4.27184e-05      7.59146     -68.0293 
0.000238485      10.5173     -39.2874 
-0.000276049      7.57260      21.2099 
0.000159965      4.20156      144.493 
0.000237300      7.54922      125.836 
-8.21957e-05      5.66533      41.8484 
-4.16435e-05      7.07541     -132.937 
-0.000157484      8.85026     -155.286 
0.000158026      2.75970     -20.8004 
8.04701e-05      2.17356      12.7648 
7.97476e-05      11.8716      145.640 
0.000117070      7.59878     -67.8928 
-0.000117050      9.49239     -11.5462 
0.000154390      1.61886      17.9814 
4.04799e-05      10.5492      64.9880 
-4.03971e-05      9.55890      17.0310 
-0.000116476      8.09829     -58.4308 
-0.000151863      5.94804      77.1788 
0.000153698      10.1064      71.7803 
0.000115859      8.71977      30.1528 
-0.000153262      8.99761      114.000 
0.000114441      9.78208     -80.2306 
3.94250e-05      9.56171      26.9954 
-0.000114490      7.26497     -139.692 
-0.000113238      7.07437     -20.1783 
-0.000113905      5.65026      41.9855 
-7.81078e-05      4.42461      168.793 
7.61804e-05      4.64954     -19.6047 
3.91553e-05      1.61295     -17.3222 
-3.90602e-05      1.29695     -70.1812 
-0.000112817      9.89414     -94.7550 
0.000150940      10.3056      100.285 
0.000150037      10.7974     -131.396 
-7.49555e-05      9.90801     -85.7174 
-0.000113140      3.42237      87.9896 
-3.84303e-05      9.77742     -6.22559 
3.83933e-05      9.72731      68.6566 
7.45469e-05      6.96830     -60.4204 
-7.47929e-05      9.94463      171.674 
-0.000111594      8.62051     -121.626 
7.50628e-05      8.70145      88.9475 
0.000111624      8.44915      175.247 
-7.52026e-05      7.28084      26.4251 
7.45484e-05      4.73713     -146.710 
-3.79087e-05      4.51558     -123.621 
-7.50220e-05      8.07251     -101.143 
3.78011e-05      8.46508      19.8902 
3.77633e-05      8.90840      127.154 
3.77100e-05      9.84924     -50.6857 
7.40534e-05      12.0749      41.2409 
-7.37808e-05      4.25851      174.611 
-3.72843e-05      10.6940     -23.5935 
7.37154e-05      11.3986      61.9504 
-3.70580e-05      1.29046     -70.9961 
3.69790e-05      9.32118      89.0175 
-3.68266e-05      4.56523     -124.113 
3.66941e-05      11.8548      145.585 
3.67546e-05      11.9356     -39.4232 
-3.66921e-05      4.46544      80.1989 
3.67070e-05      10.5389      133.693 
3.65136e-05      4.51558      146.379 
-3.64972e-05      6.83310      79.5477 
-3.63862e-05      2.60759     -55.9441 
-0.000153613      7.24574     -139.141 
0.000277376      7.95779      47.8550 
0.000216903      10.2972     -144.087 
-0.000181765      5.34366      95.3663 
0.000163387      10.4931      115.636 
2.91999e-05      5.10685      168.249 
0.000101282      10.0068      28.6657 
0.000239377      9.00527     -29.9812 
0.000168023      9.76430     -88.3574 
-0.000225561      7.09943     -20.2718 
0.000196718      6.28078     -89.0895 
0.000170607      5.11102      168.027 
2.78476e-05      3.77434     -80.2362 
0.000127939      7.98657      156.065 
-0.000100403      5.87751      8.02148 
-7.58662e-05      4.43299     -60.5450 
0.000176761      3.77783     -79.9333 
-0.000113696      7.26107     -139.245 
0.000120851      8.65143      83.7608 
-0.000156514      6.37293     -81.3385 
-8.21845e-05      6.95739      156.089 
7.00926e-05      3.72533     -171.042 
-0.000152711      4.43100      67.7175 
-7.17376e-05      7.08327      159.161 
2.53582e-05      7.22915     -46.4552 
-0.000134079      10.3406     -170.540 
-0.000136477      4.37843      23.9864 
-2.51457e-05      8.14199     -70.1856 
0.000221662      10.4105     -102.087 
-4.81528e-05      10.2652      84.6353 
-0.000150869      5.06867     -7.93937 
-4.69011e-05      4.28096      178.925 
0.000108444      2.82867     -65.7875 
0.000126331      7.24261     -46.3433 
4.63393e-05      6.22469      157.720 
-2.40074e-05      7.63601     -160.092 
-6.76326e-05      8.16793     -70.1001 
-0.000163096      13.4356     -135.602 
-2.37139e-05      13.2616      50.1396 
-7.83959e-05      5.89479      7.79900 
0.000111400      6.36872      18.4926 
0.000175338      7.36507      9.68977 
-6.43629e-05      11.0368     -37.6389 
4.37512e-05      7.08926      65.6785 
-0.000370702      13.2746      50.0725 
-4.36862e-05      9.09360      65.5752 
6.28939e-05      10.4893     -157.346 
2.23808e-05      10.4748      115.684 
0.000205787      7.94278      47.7569 
8.43843e-05      7.21605      133.201 
-6.25291e-05      6.28845     -95.4779 
2.18500e-05      10.6519     -68.0592 
-0.000264649      9.86108    -0.815342 
-0.000174542      9.85615     -94.8872 
-0.000134344      5.36702      5.77755 
-5.88117e-05      7.32453      110.962 
4.22670e-05      2.96196     -178.069 
7.78149e-05      5.97241     -176.355 
4.06715e-05      7.99450      155.937 
3.56973e-05      10.4664      115.588 
3.76148e-05      10.2814     -144.023 
-0.000184122      9.15132     -54.6092 
0.000107239      10.6700     -68.0983 
-5.98622e-05      1.66358      62.8108 
0.000165620      11.0905     -67.4117 
-3.85989e-05      8.54712      13.8105 
2.03588e-05      5.46540     -122.291 
-3.95025e-05      4.26965     -61.1557 
-0.000149193      9.84083    -0.817020 
5.72474e-05      9.31112     -94.6827 
-0.000101598      9.08524      65.6916 
-2.00965e-05      7.65506     -160.144 
-2.00350e-05      4.28063      179.196 
-8.75881e-05      6.36293      34.2392 
-9.23101e-05      10.3347     -107.803 
7.25219e-05      2.98146     -178.082 
-0.000184361      10.1031     -91.3619 
-1.97060e-05      5.72913     -93.1986 
0.000169946      9.74404     -88.3540 
1.95612e-05      10.4489      115.387 
8.62748e-05      9.01885     -22.6991 
-1.95464e-05      11.8888     -143.689 
-7.02382e-05      6.95847     -78.5616 
-7.96402e-05      8.36399     -75.0312 
-1.93962e-05      9.87687     -22.8774 
-1.92029e-05      10.1746      3.04388 
1.91785e-05      6.21703      157.893 
8.82532e-05      7.20271      133.088 
3.32883e-05      10.3091     -143.996 
-0.000118263      11.9045     -143.745 
-5.21873e-05      6.28655     -95.2941 
5.49055e-05      8.14435      158.539 
1.87784e-05      5.43837     -54.7288 
5.22571e-05      7.90946      154.860 
-0.000116832      4.34978      24.4472 
3.59799e-05      12.6882      53.2033 
-0.000164022      1.69054      62.5364 
-4.66553e-05      6.30605     -60.3448 
6.83305e-05      10.3471      18.7135 
-8.26826e-05      9.90342     -22.9398 
-3.50478e-05      11.0812     -37.5939 
-1.83318e-05      6.00446     -118.442 
-1.82821e-05      8.89978     -79.1183 
-1.82335e-05      10.2671      84.5227 
0.000110805      11.0643     -116.058 
-1.80372e-05      6.55022      46.6061 
-5.09540e-05      11.9311      146.417 
-0.000478128      10.4310     -131.270 
5.00500e-05      10.4406      115.291 
0.000245699      12.7883     -40.9433 
-1.78144e-05      13.5259      40.9216 
3.42797e-05      8.97247      15.6472 
1.77473e-05      12.7332      37.6621 
0.000148471      7.00595     -92.2896 
0.000157847      4.22536      8.43517 
-1.74054e-05      13.5676     -136.614 
4.76954e-05      5.20522      75.5411 
3.32073e-05      2.94188      168.226 
0.000173222      8.16320      158.591 
0.000494809      12.8036     -40.8839 
-0.000189433      10.3440     -170.429 
0.000107218      10.5080     -157.389 
4.82834e-05      9.30948     -94.5585 
-3.27266e-05      11.0634      131.701 
0.000305937      9.32937      26.8948 
0.000107638      4.10523     -26.3121 
1.70203e-05      6.23581      157.963 
4.73995e-05      8.89322      105.253 
4.44266e-05      7.08125      65.8224 
-1.67891e-05      10.2691      84.4102 
-4.35550e-05      13.5823     -136.672 
-0.000127402      8.80507     -85.6990 
-0.000111986      7.12546     -20.3682 
-6.02792e-05      10.2176      49.7661 
4.66456e-05      12.7048      37.6456 
3.12832e-05      3.78129     -79.6423 
-9.30288e-05      9.87559     -94.8775 
-0.000132056      8.56680      13.7782 
1.65257e-05      7.16025      132.962 
-3.15075e-05      6.55109      46.8566 
-0.000115213      10.3410     -107.910 
-1.63666e-05      6.86109     -88.9973 
1.63628e-05      9.33764      26.7298 
-9.71775e-05      13.2134     -136.595 
1.62591e-05      9.01209     -29.8076 
-1.60883e-05      5.38717      5.75586 
6.06651e-05      10.8338     -33.2498 
5.76663e-05      1.41520     -137.299 
-3.11574e-05      10.3930      69.2634 
-8.82517e-05      8.00190     -109.565 
-5.86330e-05      13.8193     -137.815 
1.56902e-05      12.2153      124.392 
-2.95771e-05      10.4881      67.9329 
-7.20452e-05      12.3900     -54.1295 
0.000127658      7.14697      132.847 
-0.000143970      13.4215     -135.664 
8.63939e-05      9.31130      26.9512 
1.55671e-05      10.2160     -85.1714 
3.05275e-05      10.0705      159.299 
-0.000154484      4.44214      68.0584 
-0.000273224      12.1096     -56.8614 
1.54582e-05      8.95296      15.6822 
5.79109e-05      1.65646     -137.442 
2.96127e-05      6.26150      157.858 
7.02739e-05      6.38543      96.8369 
-0.000120031      5.40535      5.52064 
-9.90389e-05      7.25851      130.976 
1.51861e-05      10.4319      115.190 
0.000232384      10.8439     -125.389 
9.81104e-05      12.2043      124.316 
-2.86992e-05      10.2710      84.3019 
7.99317e-05      7.56812     -133.606 
4.29801e-05      10.6899      34.4029 
-4.15222e-05      11.3019     -149.125 
4.15744e-05      9.27021      87.2812 
0.000168218      9.03685     -22.6513 
-1.46506e-05      11.9041      146.443 
-4.20391e-05      7.00133      17.9728 
-9.09612e-05      9.80662      42.9349 
-1.43926e-05      9.60725     -120.942 
-1.43719e-05      8.36873      149.084 
1.43151e-05      6.99906     -83.9318 
1.41629e-05      10.4057      115.135 
0.000132719      13.5735      132.670 
2.78690e-05      8.74536     -16.6126 
2.79537e-05      12.9542     -45.1267 
4.00792e-05      10.8556     -125.476 
2.77178e-05      7.58211     -133.717 
-1.40710e-05      7.46668     -146.693 
0.000127760      9.35574      26.6740 
-6.42085e-05      9.87733     -94.9946 
0.000123729      11.6836      55.2495 
2.72257e-05      10.6775     -67.9975 
2.71528e-05      4.11847     -24.0759 
-3.84453e-05      2.35200     -174.140 
2.71850e-05      12.2011      48.6553 
0.000211160      8.99622     -107.064 
1.37899e-05      10.4836      115.784 
1.37360e-05      10.2143     -85.2846 
-9.96402e-05      9.86138    -0.928686 
0.000107611      12.6929      37.5758 
4.98665e-05      10.5097     -136.154 
-1.36632e-05      7.48299     -146.775 
3.93571e-05      10.3974      115.037 
1.35716e-05      7.09148      66.0387 
-2.61112e-05      5.87472      7.82581 
3.43822e-05      7.21922     -42.5273 
-4.92796e-05      12.1387      50.7500 
-6.14316e-05      9.07692      65.8081 
1.34297e-05      8.91277      105.219 
0.000133814      9.72379     -88.3505 
3.89904e-05      12.5911     -128.163 
-1.34480e-05      4.73964      37.1112 
-2.61699e-05      6.26528     -95.1261 
-2.60152e-05      10.4120      69.3028 
-1.33015e-05      6.55180     -57.0889 
-2.63923e-05      9.85691     -3.37363 
0.000133049      12.9685     -45.0633 
7.43846e-05      6.86706      119.103 
-5.93203e-05      11.0046     -149.895 
-4.84648e-05      9.75951      12.1843 
7.28575e-05      10.3705      75.9376 
6.14772e-05      7.20430     -42.6362 
1.31329e-05      10.1009      159.482 
-9.90590e-05      9.86212      178.836 
1.31058e-05      10.7066      34.3416 
1.30817e-05      8.91811      105.345 
-7.99400e-05      11.9161     -143.669 
-1.30731e-05      6.39529     -81.1853 
-9.44436e-05      11.7114      42.0238 
-2.48704e-05      4.75189      37.3060 
-1.30342e-05      6.35156      34.0881 
-2.58093e-05      13.2980      137.987 
-2.49169e-05      10.4773      67.7940 
-0.000185529      9.83743     -3.38032 
1.29141e-05      10.4646      61.0843 
7.38521e-05      9.98264     -160.330 
6.11680e-05      12.1877      48.7268 
-6.00989e-05      7.99898     -120.667 
5.00888e-05      10.2489      11.0253 
0.000193409      8.97321      106.579 
1.27752e-05      8.72016     -16.5231 
-1.26934e-05      9.00039     -160.798 
-2.48944e-05      11.6265     -123.280 
1.26471e-05      10.4552      61.1779 
-1.25592e-05      10.2837      104.416 
-1.25262e-05      4.73638      37.4490 
-3.64371e-05      10.3540     -107.769 
-4.77036e-05      11.6025     -140.245 
7.07795e-05      10.3888      114.936 
-0.000189966      13.8048     -137.760 
-0.000122086      11.4949     -128.147 
1.24545e-05      6.29906      157.997 
-0.000309537      13.2597      50.0184 
-9.26001e-05      10.4461     -11.9355 
0.000140987      13.5602      132.609 
-4.79261e-05      5.25090     -42.6835 
0.000102550      10.2933      36.0679 
-0.000132621      10.2904     -174.313 
-9.98429e-05      13.3125      138.043 
-9.31717e-05      11.1271     -153.756 
1.22033e-05      1.43015     -137.850 
-0.000129471      12.3782     -54.2055 
3.18917e-05      9.15619      57.9394 
-1.21809e-05      5.04701     -111.381 
-0.000115408      9.01952     -160.840 
0.000579298      10.2450      10.9141 
-2.36237e-05      11.0504      131.625 
0.000101646      12.1928      124.238 
1.20860e-05      6.38778      97.0106 
-6.80465e-05      8.54708      78.6634 
9.16314e-05      8.90142      10.2262 
-0.000160147      9.39238     -51.3995 
6.41902e-05      7.07693      64.7365 
-5.66840e-05      13.7912     -137.823 
-3.41728e-05      8.95376     -124.259 
-1.18173e-05      7.24574      130.859 
1.18031e-05      10.7341      34.3722 
-6.74899e-05      11.5875     -140.184 
6.69872e-05      6.23651      71.1007 
-2.30696e-05      11.6213     -123.416 
3.38871e-05      7.23691     -48.0260 
7.55097e-05      7.56939     -133.393 
5.50550e-05      8.17062      158.459 
4.39694e-05      9.16656      57.8360 
3.37861e-05      12.6132      53.9666 
-1.16501e-05      7.90359     -172.729 
-0.000148652      9.84147      178.951 
-2.28232e-05      9.55272     -26.0820 
-1.16026e-05      11.1137     -157.126 
1.15682e-05      12.5883     -128.290 
1.15751e-05      7.13321      132.728 
-6.47213e-05      8.62313      102.458 
-4.42091e-05      9.16307     -54.5060 
-1.15384e-05      11.2845     -149.072 
1.14716e-05      9.97016     -160.185 
3.30397e-05      11.0573     -67.5632 
-1.14211e-05      7.18107      88.8803 
-0.000116168      12.1121     -57.5446 
1.13897e-05      10.8005      34.1317 
0.000176842      6.87694      119.250 
3.32873e-05      10.9880     -39.9774 
-0.000115013      7.88350     -172.711 
-0.000307723      11.9076      137.792 
2.21427e-05      10.1381      159.561 
6.42985e-05      9.98922     -160.224 
1.12496e-05      12.6664     -129.167 
1.12281e-05      10.2622     -120.963 
-2.18038e-05      13.1985     -136.412 
5.47449e-05      10.2682      99.7569 
-7.23194e-05      12.0736     -57.6523 
0.000202811      9.37385      26.6184 
-1.11329e-05      6.52035      116.014 
-0.000194115      11.1216     -157.030 
-2.21557e-05      12.0926     -56.8089 
-1.11351e-05      9.49109     -60.7355 
0.000286715      12.6758     -129.364 
0.000291896      13.5465      132.546 
-2.17551e-05      7.18071      89.0420 
-0.000172063      13.4217     -135.544 
4.18600e-05      11.9480      56.4706 
-3.20891e-05      10.1384      75.6089 
-1.10275e-05      8.61878      102.326 
0.000113638      12.9966     -45.0608 
9.45503e-05      11.4600     -62.2285 
-1.09923e-05      10.9183      45.5959 
-1.09944e-05      13.2132     -136.473 
-0.000189028      14.3969      134.888 
0.000474902      12.5568     -38.9871 
2.15743e-05      9.16087      57.6638 
-2.11644e-05      5.23769     -42.5266 
1.09356e-05      13.2981      46.4633 
-1.08797e-05      10.2308     -65.6381 
-0.000152768      12.0816     -56.8893 
-2.15552e-05      13.6990      137.131 
3.18413e-05      7.26497     -48.0101 
4.27422e-05      8.88148      10.2494 
-1.07911e-05      10.3602     -107.876 
-9.34762e-05      13.2834      43.5969 
-4.17056e-05      8.56226      78.8220 
5.08805e-05      10.2695     -120.812 
-0.000252969      9.84112    -0.930598 
-4.22924e-05      13.6842      137.073 
-2.13464e-05      10.3640     -170.448 
2.12499e-05      10.6257     -71.9054 
-3.14082e-05      12.1259      50.8241 
-3.13958e-05      7.62173     -17.7232 
3.10375e-05      8.70074     -16.5610 
1.07110e-05      6.90415      119.309 
6.15846e-05      11.0035     -39.9096 
2.10379e-05      12.1596     -48.7329 
8.41024e-05      8.10476     -62.3578 
2.10513e-05      10.4834      116.026 
-4.15614e-05      6.53121     -156.734 
7.04079e-05      10.2648      99.6455 
-9.23065e-05      13.5965     -136.729 
1.05598e-05      12.5761     -37.1796 
1.05283e-05      12.6018      54.0383 
3.11120e-05      10.5180      19.0890 
1.05055e-05      13.2849      46.6456 
-5.13048e-05      11.6212     -140.447 
0.000180959      10.2456      99.6638 
-4.11540e-05      8.16618     -7.31701 
1.04402e-05      12.1815      124.159 
0.000100391      10.2987      173.868 
-0.000110231      14.3127      44.4329 
-2.06687e-05      4.44975      67.8164 
-1.03987e-05      7.16157      88.8773 
0.000160268      8.80675      10.4664 
-3.08772e-05      10.3756      70.1681 
7.72204e-05      9.44316     -130.879 
-0.000120114      9.81721     -3.38729 
-0.000228749      13.7128      137.069 
3.05434e-05      9.05362     -122.920 
-1.03249e-05      3.30026     -90.3517 
-5.08730e-05      10.3674     -170.337 
1.03603e-05      6.22997      71.2770 
3.06684e-05      11.8257     -138.084 
8.05373e-05      9.30213      27.1149 
-0.000179306      9.42752      167.380 
-0.000150392      7.05998     -28.2348 
-2.02880e-05      7.08821     -37.5505 
5.02849e-05      12.1647      124.213 
2.03322e-05      11.0496     -67.6603 
-8.10525e-05      13.3276      138.102 
-7.97690e-05      11.5069     -128.223 
3.02631e-05      13.2983      46.5845 
1.02456e-05      10.8914      136.041 
9.00495e-05      9.88280     -111.734 
1.02535e-05      12.5922     -37.1239 
2.04136e-05      11.9644      123.823 
0.000120037      10.2497     -103.657 
4.97394e-05      9.01105     -22.5802 
4.99775e-05      8.82060     -64.4813 
-7.03869e-05      8.23316     -168.225 
7.96752e-05      10.8768      135.967 
3.00612e-05      10.6318     -71.8055 
-1.01413e-05      7.16120      89.0394 
5.69986e-05      7.25143     -48.1291 
4.01429e-05      10.2422      99.5520 
1.01337e-05      12.5713      54.3888 
-1.01267e-05      10.9973     -149.750 
-0.000119130      10.4176     -131.186 
-1.01289e-05      10.3860     -162.400 
-7.94543e-05      8.64291      102.429 
-0.000237383      14.3826      134.831 
0.000158371      11.9482      123.875 
1.01327e-05      8.51969     -174.476 
-9.88625e-05      10.9929      116.240 
1.01000e-05      2.78922     -67.6576 
-0.000109295      13.2686      43.7787 
1.00825e-05      8.97879      106.698 
-4.00128e-05      10.3872      70.3097 
-7.58883e-05      7.46708     -102.844 
5.94762e-05      11.8393     -138.011 
-3.42083e-05      10.4419     -11.8267 
-0.000135986      8.18887     -7.43956 
1.00472e-05      12.4412     -49.4984 
1.98711e-05      8.90938     -12.4466 
0.000167938      13.5179      132.541 
3.98361e-05      8.99191      106.543 
3.97448e-05      6.23169     -68.5419 
-6.92324e-05      10.4053     -162.434 
2.96323e-05      12.1749     -48.7958 
8.87264e-05      10.5371      19.0530 
-9.89362e-05      13.6113     -136.787 
5.94650e-05      10.2836     -6.36374 
4.93964e-05      12.8413     -134.747 
-0.000108633      12.1016     -57.6225 
-9.98135e-06      5.23901     -42.2135 
9.94760e-06      11.1481     -118.036 
3.94393e-05      12.1016      32.3775 
-4.92581e-05      10.3866     -170.355 
-5.94060e-05      13.3551      138.095 
2.75416e-05      13.0104     -45.0000 
-6.88967e-05      9.66194      174.657 
-0.000138116      13.8184     -137.698 
-9.95222e-06      9.79471      86.8379 
7.88438e-05      11.4421     -62.1813 
-3.94958e-05      5.26124     -45.6183 
-9.91961e-06      11.0148     -149.803 
4.93242e-05      12.6635     -129.296 
2.96093e-05      9.03662     -122.989 
-1.97529e-05      6.53924     -156.571 
-1.97167e-05      11.6056     -140.383 
1.98010e-05      8.62053     -90.7980 
-1.97239e-05      8.56621      78.6891 
9.87777e-06      2.78158     -68.0436 
2.95293e-05      10.4921      117.102 
-6.96705e-05      6.75224     -122.418 
-5.89682e-05      11.5341     -147.247 
9.87998e-06      8.49953     -174.463 
-4.92280e-05      8.25299     -168.254 
4.92684e-05      13.5328      132.483 
-3.93499e-05      9.79361      86.9563 
9.90725e-06      12.9124     -47.7628 
-2.94911e-05      12.9340     -137.005 
-9.85287e-06      10.3688      70.2734 
-1.96776e-05      12.7296      39.5154 
-8.84401e-05      13.2467      50.0856 
-2.79119e-05      7.90106     -172.875 
3.92897e-05      11.6597     -38.3834 
6.87414e-05      8.99748      106.662 
5.89112e-05      13.2937     -44.5129 
9.81201e-06      8.11383     -62.2358 
-6.87832e-05      13.3702      138.153 
-1.95930e-05      10.3806      70.4111 
9.80426e-06      9.45594     -130.968 
1.95840e-05      8.62084     -90.9327 
6.86834e-05      10.2815     -6.25568 
9.81094e-06      7.91610      47.9700 
6.87124e-05      10.2545     -103.767 
8.84093e-05      9.29565     -170.962 
-1.96586e-05      13.8460     -137.693 
-9.83464e-06      12.9344     -137.130 
3.92602e-05      10.0953     -24.5839 
6.87987e-05      12.3263      40.5907 
2.94103e-05      6.20640     -68.6437 
-5.89937e-05      13.2540      43.8393 
-3.93181e-05      13.6255     -136.843 
-1.96411e-05      10.9157     -21.1600 
-2.95171e-05      9.76815     -102.417 
-4.90587e-05      12.3105     -138.358 
-1.96486e-05      5.24678     -45.4635 
9.79580e-06      11.1576     -118.128 
9.78808e-06      11.7095     -150.984 
3.92553e-05      10.2004     -7.20971 
9.80149e-06      10.6064     -55.6815 
-2.94488e-05      8.64713      102.555 
3.92714e-05      9.34677      26.8407 
4.91119e-05      11.6756     -38.3217 
2.94464e-05      10.3507      99.7881 
-9.82569e-06      12.5963      127.453 
-3.92082e-05      13.6394     -136.781 
-2.95320e-05      12.0628     -57.7336 
5.90322e-05      13.5047      132.480 
-9.83536e-06      9.37655     -51.3223 
9.80415e-06      4.11425     -26.5651 
1.96678e-05      10.3009      173.756 
3.73788e-05      7.24541      77.7299 
-3.93492e-05      14.3540      134.831 
2.81748e-05      6.28505     -56.8184 
-2.95093e-05      13.8316     -137.638 
9.80687e-06      10.2574      97.0554 
9.80675e-06      10.0003      29.0788 
-9.83809e-06      13.8035     -137.642 
1.96791e-05      12.5720     -38.9311 
-1.97364e-05      13.6542     -136.839 
-9.81679e-06      10.4239     -162.466 
-9.80819e-06      12.0908     -57.7036 
9.84735e-06      9.39130      26.5651 
7.30047e-05      6.09261     -115.473 
0.000139697      9.71009     -97.8126 
-5.42990e-05      13.0629      129.223 
-4.28299e-05      9.51903     -62.1967 
-9.36949e-05      11.5180      54.1850 
-4.34203e-05      11.3445      120.043 
0.000133200      9.84301     -104.715 
0.000160062      10.0800      89.7739 
5.18852e-05      12.6752     -46.4081 
6.31734e-05      8.01702      143.932 
-4.18068e-05      13.6580      131.557 
3.25284e-05      11.5545     -33.2783 
5.55017e-05      12.0108     -141.965 
4.02484e-05      8.78682      10.4904 
-3.13658e-05      9.48157     -60.8384 
1.08469e-05      7.06830      64.8850 
-9.73087e-05      9.99054      171.482 
-0.000123140      10.4823     -103.799 
2.81172e-05      10.2795     -120.905 
1.95985e-05      12.0297     -142.158 
-3.82841e-05      5.24709     -45.7764 
5.57864e-05      10.1430      26.7167 
1.98310e-05      7.05973      65.0339 
6.30549e-05      10.0091      153.537 
-6.11209e-05      9.45467     -60.8880 
1.96423e-05      12.8549     -134.936 
5.30601e-05      9.84715      177.790 
-2.86439e-05      9.38923     -51.2258 
4.53227e-05      11.5714     -33.2232 
-0.000145248      10.1435      75.4981 
4.52122e-05      10.8434      58.0400 
-9.48608e-06      1.09418     -18.0995 
-9.36596e-06      11.3546      120.132 
1.76513e-05      9.44067      58.1607 
6.01698e-05      10.2362     -85.1809 
-6.59487e-05      9.87739      173.838 
3.50532e-05      12.6617     -46.4720 
6.63089e-05      12.8412     -134.875 
3.39978e-05      8.00065      143.847 
9.22318e-06      6.29616     -56.6641 
-5.80853e-05      13.6446      131.493 
-9.13739e-06      4.46782      67.9109 
-5.90516e-05      13.0350      129.208 
7.62449e-05      12.4209     -126.225 
-5.81970e-05      9.24793     -124.514 
0.000107730      7.36036      74.7198 
1.76796e-05      7.84421      49.4498 
-3.39257e-05      10.9029      153.765 
-1.74757e-05      11.8785      38.7813 
-8.91552e-06      7.06959     -28.3794 
3.31180e-05      10.5493      57.9367 
-8.89859e-06      10.2681      57.0834 
4.16304e-05      11.8847     -39.8797 
4.92525e-05      12.3762      37.1839 
4.85330e-05      10.4148     -102.196 
8.68373e-06      2.77407     -68.4317 
-6.48008e-05      11.5297      37.8835 
-8.67676e-06      9.40503     -51.3031 
-3.30971e-05      12.1105      136.604 
-2.53964e-05      12.2145     -123.377 
3.23822e-05      8.91427     -9.94679 
-8.58402e-06      4.46024      68.1521 
8.57570e-06      7.05447      65.9051 
8.56639e-06      10.5664      57.9950 
1.67742e-05      7.18283      117.352 
3.24859e-05      7.85529      49.1292 
-3.24393e-05      11.2257     -38.7071 
8.44840e-06      8.65108     -120.417 
3.24390e-05      9.72744     -97.6782 
1.63251e-05      10.3957     -102.218 
2.44494e-05      14.0015      134.538 
-1.65551e-05      10.2575      57.1749 
-8.29431e-06      9.28816      32.4254 
5.56628e-05      12.1463     -48.8048 
-2.41454e-05      11.5689     -52.5162 
2.42337e-05      8.37761      76.3272 
3.23650e-05      11.1827      137.464 
-2.40353e-05      11.0189     -113.307 
-8.20796e-06      10.8854      153.719 
-8.17629e-06      11.8912      38.8574 
8.17489e-06      10.5213      57.9717 
2.39949e-05      11.7556     -133.552 
-1.60092e-05      7.45187     -103.030 
8.12439e-06      2.75594     -68.2826 
-1.60441e-05      9.47149      167.314 
3.16008e-05      12.1623     -125.024 
3.14995e-05      10.9613      123.315 
1.59819e-05      12.6774      37.6296 
8.05627e-06      10.4892     -130.128 
1.58397e-05      8.01262      143.730 
-1.58047e-05      12.2257     -123.456 
-7.97793e-06      11.3817      120.171 
-5.68642e-05      10.9325      45.5200 
-1.57850e-05      11.8760      38.9165 
-1.57200e-05      8.90877     -116.390 
1.57098e-05      7.37643     -42.2541 
-7.92242e-06      12.7735     -37.7477 
7.87772e-06      11.6328     -33.1447 
-1.56978e-05      10.2636      57.3312 
3.12195e-05      6.38355     -36.9777 
2.34244e-05      11.9948     -141.906 
7.83456e-06      5.48799      169.713 
-7.82605e-06      8.21150     -7.55624 
-2.39592e-05      7.12068      89.0339 
7.80931e-06      10.1003      89.7744 
-7.79613e-06      11.5061      54.2669 
-7.75487e-06      9.44729      167.407 
-7.76079e-06      11.5280      143.110 
7.74655e-06      14.0152      134.594 
1.63773e-05      7.18941     -42.7456 
-2.42257e-05      9.80052     -114.475 
-1.61816e-05      9.16619     -133.763 
-2.36259e-05      4.57926      120.149 
1.57705e-05      10.0598      89.7735 
-8.02074e-06      7.92116     -172.893 
-2.35744e-05      11.0879      22.8167 
8.01121e-06      10.9221      123.195 
1.57733e-05      6.39742     -10.9949 
1.56283e-05      12.5364      54.6118 
7.93822e-06      9.53847      148.810 
7.90338e-06      7.00766     -92.6145 
-7.89296e-06      9.85185      42.5306 
-7.88763e-06      1.28502     -110.975 
7.86632e-06      2.74878     -68.6604 
1.55824e-05      11.9055      124.599 
-7.85060e-06      12.6758     -50.6357 
1.55263e-05      9.71287     -97.9310 
7.80930e-06      11.6767     -33.1182 
-7.80412e-06      13.0478      129.277 
-7.75573e-06      11.0123     -124.641 
-7.71094e-06      11.8885     -147.085 
7.72684e-06      7.71383     -30.8863 
-7.71593e-06      10.3602     -74.4337 
-7.71875e-06      10.8751     -60.2296 
7.69326e-06      1.73631     -128.455 
7.67590e-06      8.38710      76.6277 
-7.66600e-06      9.57092     -26.0287 
7.66343e-06      6.09297     -115.050 
! Tentative model.
! Flux (Jy) Radius (mas)  Theta (deg)  Major FWHM (mas)  Axial ratio   Phi (deg) T \
! Freq (Hz)     SpecIndex
-8.06271e-06      7.12101      89.0344 
