! Center RA: 12 21 31.69053,  Dec: +28 13 58.50012 (2000.0)
! Established model.
! Flux (Jy) Radius (mas)  Theta (deg)  Major FWHM (mas)  Axial ratio   Phi (deg) T \
! Freq (Hz)     SpecIndex
 0.0733777      0.00000      0.00000 
 0.0147687    0.0282843     -45.0000 
0.00144260    0.0200000     -90.0000 
 0.0134432    0.0200000      180.000 
0.00669439    0.0282843      135.000 
0.00202654     0.247386      104.036 
0.00128385    0.0447214     -26.5651 
0.00388623     0.223607      100.305 
0.000614960    0.0200000      90.0000 
0.00456822     0.243310      99.4623 
0.000592093    0.0200000      0.00000 
0.00233475    0.0565685      135.000 
0.00219414    0.0721110     -33.6901 
0.00476292     0.228035      105.255 
0.00310641    0.0848528      135.000 
0.000137910    0.0894427     -26.5651 
0.00285039     0.100000     -36.8699 
0.000640433     0.362215      96.3402 
0.000499845     0.145602      15.9454 
0.00216895     0.380526      93.0128 
0.00123885     0.164924      14.0362 
0.00147523     0.100000     -53.1301 
0.000734652     0.100000      143.130 
0.000222495     0.400500      87.1376 
0.000147275     0.368782      102.529 
0.000692558     0.100000      126.870 
9.54093e-05     0.286356      77.9052 
0.000719161    0.0400000     -90.0000 
0.000278737     0.116619      120.964 
0.00162932     0.282843      81.8699 
0.000323585     0.134164      116.565 
0.000473138     0.126491      108.435 
0.00119866    0.0632456     -71.5651 
0.00118980     0.145602      105.945 
0.000629826     0.152315      113.199 
0.00100515    0.0721110     -56.3099 
0.000580264     0.302655      82.4054 
0.000584402     0.967471      97.1250 
0.000325382     0.134164      153.435 
0.000171187     0.305941      78.6901 
0.000992433     0.582409      105.945 
0.000703487     0.456070      127.875 
0.000129855     0.989950      98.1301 
5.42268e-05     0.322490      82.8750 
0.00176597      1.26063      91.8183 
0.000347074     0.380000      90.0000 
0.000902156     0.987320      96.9811 
5.20544e-05     0.444072      125.838 
0.000337270     0.144222      33.6901 
0.000701687    0.0894427     -63.4349 
0.000620195     0.866487      108.853 
0.000474385     0.152315      156.801 
0.000412181     0.161245      29.7449 
8.36933e-05     0.316228      71.5651 
0.000507044      1.84456      99.3602 
0.000449137     0.400500      92.8624 
0.000101861     0.215407      111.801 
0.000395537     0.468615      129.806 
0.000574994     0.885438      108.435 
0.000207305     0.757100      102.200 
0.000140636     0.313050      63.4349 
0.000392360     0.577235      104.036 
0.000179560     0.178885      26.5651 
0.000243774    0.0824621     -75.9638 
0.000103175     0.234094      109.983 
0.000402825     0.985089      95.8263 
0.00118698      1.82165      98.8418 
0.000100054     0.189737      18.4349 
0.00183827      3.26392      87.1902 
0.000420612     0.170880      159.444 
3.27300e-05     0.388330      101.889 
0.000627663      1.24065      91.8476 
0.000466605     0.208806      16.6992 
0.000291660     0.481664      131.634 
0.000483309     0.107703     -68.1986 
3.10091e-05     0.392938      104.744 
0.000142521     0.322490      60.2551 
0.000147289     0.941488      77.7352 
0.000979824      1.84141      98.7462 
0.000198381     0.729931      99.4623 
0.000675433     0.910824      109.231 
0.000174682     0.223607      116.565 
0.000214113     0.945939      76.5514 
0.000155991     0.420000      90.0000 
2.75215e-05     0.398497      107.526 
0.000149740     0.572713      102.095 
0.000161832     0.404969      110.225 
5.21128e-05     0.495177      133.363 
0.000141590     0.332866      57.2648 
0.000149617      6.58960      113.998 
0.000746388     0.480833      135.000 
0.000316120     0.922822      60.1011 
0.000260584     0.961041      77.9885 
0.00126313      6.56320      113.909 
0.000518057      4.46363      92.3111 
4.57213e-05     0.223607      10.3048 
0.000105136      3.24395      87.1729 
0.000150444     0.923472      107.650 
0.000842878      2.16924      67.2176 
0.000430455      1.12446      84.8978 
0.000290929      3.46023      89.3377 
0.000149553     0.568859      100.125 
4.42661e-05     0.243310      9.46232 
0.000230373      3.24500      86.8202 
0.000136003      3.44006      89.6669 
0.000235218     0.101980     -78.6901 
0.000409598     0.655134      77.6609 
8.45394e-05     0.260768      4.39871 
0.000307508     0.233238      120.964 
0.000150462     0.344093      54.4623 
0.000136383      1.00975      97.9696 
0.000117649     0.260000      0.00000 
0.000700337      1.26143      92.7263 
0.000319032      3.65978      101.985 
0.000429369     0.929731      108.825 
3.81299e-05     0.412311      112.834 
0.000130356      4.37831      84.7582 
0.000189882     0.565685      98.1301 
0.000646237     0.913017      61.1892 
8.60149e-05      3.22503      86.8005 
0.000275375      4.92219      99.1179 
0.000561822      4.92687      108.214 
7.36962e-05      4.36028      84.4725 
0.000285863      1.73170      104.036 
0.000292086     0.189737      161.565 
7.23333e-05     0.280000      0.00000 
0.000198302      6.90101      105.809 
0.000136110      4.83628      103.634 
0.000164120      1.01272      99.0903 
8.65548e-05      4.48446      92.5562 
3.46789e-05     0.440000      90.0000 
0.000311192      1.64000      102.680 
0.000366768     0.280713     -4.08562 
0.000442227      4.03272      85.4487 
5.04017e-05      4.36225      84.2110 
0.000384766      4.44855      104.848 
0.000318240     0.126491     -71.5651 
0.000587716      6.88177      105.854 
0.000304981      4.48361      92.3008 
0.000202697     0.356090      51.8428 
0.000174125     0.440454      87.3974 
9.37976e-05      4.38018      84.4977 
9.83002e-05      4.20747      83.4493 
0.000372392      4.20523      83.7200 
0.000213899      4.84103      103.864 
1.55180e-05     0.965402      76.8274 
0.000194953      3.46052      89.0065 
8.15597e-05      1.81868      98.2192 
0.000244026      1.94093      91.7715 
0.000511767      3.67935      101.921 
0.000112810      1.03247      98.9149 
2.75057e-05     0.420476      115.346 
5.80854e-05      4.37347      82.9075 
0.000240561      4.65145      96.6667 
0.000454745      4.37598      82.6476 
0.000161121     0.563205      96.1155 
0.000145801      3.26300      87.5410 
2.65119e-05      3.20506      86.7805 
0.000251300      1.75602      104.511 
0.000285146      4.94194      99.0811 
7.23804e-05      1.00896      103.761 
0.000168641      4.64000      90.0000 
0.000153605      1.10653      83.7742 
0.000175159      1.06921      97.5238 
6.28174e-05      4.99299      110.395 
0.000195662      2.16157      67.7064 
2.51712e-05     0.244131      124.992 
0.000291539      3.28219      87.9047 
0.000217569      4.60435      92.4896 
1.24585e-05     0.178885      153.435 
0.000117429      2.15081      67.0113 
0.000195711      4.86526      104.036 
0.000148429      3.18509      86.7603 
0.000124117     0.368782      49.3987 
0.000284979      4.97425      110.475 
0.000178541     0.282843     -8.13010 
8.44761e-05     0.659697      75.9638 
6.33881e-05     0.228035      127.875 
0.000212452      1.44997      114.444 
0.000150155      1.94041      91.1812 
0.000100175     0.460435      87.5104 
0.000186417      2.11981      63.6767 
0.000118422      1.18186      113.962 
3.05274e-05      4.53841      101.954 
2.18374e-05     0.152315     -66.8014 
0.000173522      4.64004      89.7530 
0.000157033     0.196977     -66.0375 
4.66763e-05      4.40477      104.730 
0.000104634     0.584123      51.9530 
1.02850e-05     0.438634      114.228 
0.000130417      1.07201      98.5836 
0.000121273     0.384187      51.3402 
0.000131525      6.88726      106.014 
3.73444e-05     0.609262      113.199 
9.37814e-06      4.87015      104.265 
9.30896e-06     0.447214      116.565 
6.20183e-05      4.89449      104.434 
4.44155e-05     0.384708     -27.8973 
7.06475e-05      4.39582      82.6810 
2.61830e-05     0.188680      147.995 
9.00868e-06      4.40386      98.0933 
3.46476e-05     0.189737     -71.5651 
1.73579e-05      4.40109      97.8355 
1.73821e-05      3.16405      87.1014 
1.72953e-05     0.917606      110.410 
8.63107e-06      4.92065      107.993 
8.54270e-06      3.73807      101.731 
8.53372e-06      1.10887      82.7468 
8.53110e-06      3.46092      88.6755 
8.48154e-06      4.05112      85.7532 
0.000748450      8.92731      98.8925 
0.000891135      7.24613      119.608 
0.000149797      7.95512      100.575 
0.000669455      7.32273      114.185 
0.000233718      7.95882      100.717 
0.000377972      7.29855      108.534 
0.000538346      8.90447      98.7853 
0.000147152      7.30331      98.6627 
0.000357927      7.30033      98.5075 
8.05365e-05      7.93917      100.744 
0.000306993      7.99650      99.7921 
0.000267472      7.86058      100.852 
7.99464e-05      7.88023      100.825 
0.000271604      7.30493      108.683 
0.000267485      6.96620      100.923 
5.38369e-05      5.80293      102.743 
0.000165186      5.80737      102.935 
6.57745e-05      7.31872      109.475 
8.74555e-05      7.86438      100.996 
0.000206154      10.1540      115.366 
0.000363045      10.3312      113.836 
0.000426668      10.1537      111.068 
0.000207939      10.1433      115.239 
0.000273435      10.3084      116.814 
0.000102030      6.97697      100.948 
8.02048e-05      7.30454      98.4629 
4.10620e-05     0.552268      95.1944 
6.04200e-05     0.195256      129.806 
7.99581e-05      2.11320      64.0412 
5.97972e-05      5.79763      102.958 
6.00460e-05      7.24366      119.573 
5.99313e-05      8.90677      98.8807 
1.99732e-05     0.579871      97.4314 
3.95324e-05      7.86928      100.989 
1.99208e-05     0.176777      135.000 
3.93401e-05      1.06066      98.1301 
3.91957e-05      7.31817      114.201 
1.97052e-05     0.604152      114.444 
1.95930e-05      1.11018      82.2348 
1.95767e-05     0.390512      50.1944 
1.94213e-05     0.577170      94.9697 
! Tentative model.
! Flux (Jy) Radius (mas)  Theta (deg)  Major FWHM (mas)  Axial ratio   Phi (deg) T \
! Freq (Hz)     SpecIndex
0.000126108     0.617414      114.905 
0.000144583      10.3129      116.863 
0.000111100      2.11981      63.6767 
7.44098e-05      7.86438      100.996 
0.000180719      1.10887      82.7468 
9.28946e-05      3.70308      102.160 
0.000216048      7.32273      114.185 
7.39550e-05     0.384187      51.3402 
1.91312e-05      7.99650      99.7921 
7.22871e-05      5.80737      102.935 
0.000161832      7.24613      119.608 
1.90366e-05     0.563205      96.1155 
5.59969e-05      8.90447      98.7853 
0.000108220      1.06921      97.5238 
7.38800e-05      7.31333      109.822 
5.54992e-05     0.184391      139.399 
5.51748e-05      10.1723      115.255 
0.000125863      6.96620      100.923 
5.50960e-05      8.01621      99.7678 
7.19074e-05      10.1548      111.005 
0.000141741      7.30033      98.5075 
3.63427e-05     0.561427      94.0856 
0.000141170      3.28299      87.5559 
5.41139e-05      4.22734      83.4802 
7.06789e-05     0.596657      50.4403 
7.12719e-05      1.18186      113.962 
3.59747e-05      1.76114      105.141 
3.51545e-05      10.1556      113.688 
3.60980e-05      1.91771      97.7921 
1.81145e-05      7.94292      100.886 
1.79258e-05      6.88726      106.014 
8.71176e-05      4.03272      85.4487 
5.25231e-05      8.90755      98.9124 
1.77654e-05      10.1739      113.642 
1.76557e-05      3.68353      102.225 
5.23583e-05      10.6358      115.746 
1.76181e-05      7.22875      119.686 
0.000523158      8.21910      93.9068 
7.66296e-05      8.19915      93.9163 
5.55408e-05      8.26039      94.0263 
0.000123530      1.89789      97.8739 
6.92027e-05      8.17919      93.9259 
3.50065e-05      10.0986      112.349 
3.48610e-05      8.28324      94.2926 
1.71761e-05      7.31872      109.475 
1.71430e-05     0.495177      133.363 
