! Center RA: 12 21 31.69053,  Dec: +28 13 58.50012 (2000.0)
! Established model.
! Flux (Jy) Radius (mas)  Theta (deg)  Major FWHM (mas)  Axial ratio   Phi (deg) T \
! Freq (Hz)     SpecIndex
 0.0733777      0.00000      0.00000 
 0.0147687    0.0286526     -45.0000 
0.00144260    0.0202604     -90.0000 
 0.0134432    0.0202604      180.000 
0.00669439    0.0286526      135.000 
0.00202654     0.247514      104.036 
0.00128385    0.0446338     -26.9958 
0.00388623     0.223431      100.253 
0.000614960    0.0202604      90.0000 
0.00456822     0.243395      99.4042 
0.000592093    0.0202604      0.00000 
0.00233475    0.0562440      135.000 
0.00219414    0.0720098     -33.5245 
0.00476292     0.227911      105.272 
0.00310641    0.0848966      135.000 
0.000137910    0.0896014     -26.3505 
0.00285039     0.100252     -36.7841 
0.000640433     0.362375      96.3009 
0.000499845     0.145849      15.8239 
0.00216895     0.380236      93.0544 
0.00123885     0.164706      13.9729 
0.00147523     0.100252     -53.2159 
0.000734652     0.100252      143.216 
0.000222495     0.400469      87.1001 
0.000147275     0.369026      102.567 
0.000692558     0.100252      126.784 
9.54093e-05     0.286260      77.8948 
0.000719161    0.0397705     -90.0000 
0.000278737     0.116465      121.027 
0.00162932     0.282706      81.9129 
0.000323585     0.134233      116.565 
0.000473138     0.126477      108.327 
0.00119866    0.0633577     -71.3505 
0.00118980     0.145849      105.824 
0.000629826     0.152624      113.162 
0.00100515    0.0720098     -56.4755 
0.000580264     0.302778      82.4523 
0.000584402     0.967226      97.1305 
0.000325382     0.134233      153.435 
0.000171187     0.306099      78.6901 
0.000992433     0.582160      105.935 
0.000703487     0.456152      127.850 
0.000129855     0.990000      98.1485 
5.42268e-05     0.322129      82.9081 
0.00176597      1.26053      91.8080 
0.000347074     0.379696      90.0000 
0.000902156     0.987333      96.9846 
5.20544e-05     0.444008      125.785 
0.000337270     0.144435      33.7726 
0.000701687    0.0896014     -63.6495 
0.000620195     0.866617      108.843 
0.000474385     0.152624      156.838 
0.000412181     0.161670      29.7779 
8.36933e-05     0.316312      71.6080 
0.000507044      1.84428      99.3665 
0.000449137     0.400469      92.8999 
0.000101861     0.215843      111.838 
0.000395537     0.468857      129.806 
0.000574994     0.885104      108.435 
0.000207305     0.756949      102.190 
0.000140636     0.313099      63.3735 
0.000392360     0.577108      104.072 
0.000179560     0.178866      26.6725 
0.000243774    0.0828082     -75.8378 
0.000103175     0.234065      110.062 
0.000402825     0.985074      95.8148 
0.00118698      1.82181      98.8377 
0.000100054     0.189835      18.4349 
0.00183827      3.26360      87.1929 
0.000420612     0.170734      159.414 
3.27300e-05     0.388092      101.940 
0.000627663      1.24028      91.8376 
0.000466605     0.209153      16.6796 
0.000291660     0.481580      131.589 
0.000483309     0.107434     -68.2729 
3.10091e-05     0.392593      104.727 
0.000142521     0.322315      60.2717 
0.000147289     0.941538      77.7139 
0.000979824      1.84109      98.7444 
0.000198381     0.730308      99.4623 
0.000675433     0.910821      109.241 
0.000174682     0.223834      116.479 
0.000214113     0.945882      76.5591 
0.000155991     0.420217      90.0000 
2.75215e-05     0.398226      107.547 
0.000149740     0.572519      102.105 
0.000161832     0.404795      110.283 
6.92558e-05     0.495261      133.342 
0.000141590     0.332828      57.2415 
0.000149617      6.58977      113.994 
0.000746388     0.480727      135.000 
0.000316120     0.922740      60.0991 
0.000260584     0.961344      77.9708 
0.00126313      6.56334      113.910 
0.000518057      4.46393      92.3122 
4.57213e-05     0.223431      10.2532 
0.000105136      3.24411      87.1760 
0.000150444     0.923634      107.640 
0.000842878      2.16892      67.2231 
0.000430455      1.12476      84.9094 
0.000290929      3.46026      89.3415 
0.000149553     0.568616      100.109 
4.42661e-05     0.243395      9.40424 
0.000230373      3.24517      86.8187 
0.000136003      3.43983      89.6625 
0.000235218     0.101837     -78.5245 
0.000409598     0.655281      77.6349 
8.45394e-05     0.260423      4.46202 
0.000307508     0.233573      120.932 
0.000150462     0.344213      54.4042 
0.000136383      1.01006      97.9856 
0.000117649     0.259634      0.00000 
0.000700337      1.26133      92.7279 
0.000319032      3.65991      101.987 
0.000429369     0.929974      108.830 
3.81299e-05     0.411965      112.829 
0.000130356      4.37806      84.7584 
0.000189882     0.565518      98.1624 
0.000646237     0.912809      61.2016 
8.60149e-05      3.22494      86.7987 
0.000275375      4.92239      99.1134 
0.000561822      4.92696      108.211 
7.36962e-05      4.36053      84.4699 
0.000285863      1.73187      104.042 
0.000292086     0.189835      161.565 
7.23333e-05     0.279894      0.00000 
0.000198302      6.90111      105.806 
0.000136110      4.83592      103.633 
0.000164120      1.01296      99.0785 
8.65548e-05      4.48429      92.5608 
3.46789e-05     0.439727      90.0000 
0.000311192      1.63987      102.688 
0.000366768     0.280627     -4.14019 
0.000529344      4.03251      85.4533 
5.04017e-05      4.36246      84.2149 
0.000384766      4.44824      104.847 
0.000318240     0.126477     -71.6725 
0.000587716      6.88161      105.852 
0.000304981      4.48343      92.3021 
0.000202697     0.355922      51.8496 
0.000174125     0.440193      87.3620 
9.37976e-05      4.37995      84.4945 
9.83002e-05      4.20716      83.4454 
0.000372392      4.20489      83.7197 
0.000213899      4.84074      103.866 
1.55180e-05     0.965599      76.8385 
0.000194953      3.46056      89.0060 
8.15597e-05      1.81881      98.2070 
0.000244026      1.94068      91.7726 
0.000511767      3.67973      101.922 
0.000112810      1.03223      98.9077 
2.75057e-05     0.420241      115.375 
5.80854e-05      4.37374      82.9042 
0.000240561      4.65162      96.6699 
0.000454745      4.37619      82.6508 
0.000180157     0.562998      96.1209 
0.000145801      3.26270      87.5351 
2.65119e-05      3.20471      86.7785 
0.000251300      1.75559      104.505 
0.000285146      4.94166      99.0776 
7.23804e-05      1.00899      103.768 
0.000168641      4.63964      90.0000 
0.000153605      1.10660      83.7714 
0.000283379      1.06954      97.5389 
6.28174e-05      4.99320      110.396 
0.000195662      2.16144      67.6999 
2.51712e-05     0.244605      125.006 
0.000291539      3.28214      87.9036 
0.000217569      4.60423      92.4940 
1.24585e-05     0.178866      153.327 
0.000117429      2.15094      67.0219 
0.000195711      4.86529      104.041 
0.000148429      3.18524      86.7588 
0.000124117     0.368782      49.3734 
0.000284979      4.97421      110.477 
0.000178541     0.282706     -8.08709 
8.44761e-05     0.659734      75.9796 
6.33881e-05     0.228306      127.925 
0.000212452      1.45003      114.456 
0.000150155      1.94016      91.1746 
0.000100175     0.460433      87.4780 
0.000297517      2.11990      63.6708 
0.000189694      1.18179      113.977 
3.05274e-05      4.53850      101.956 
2.18374e-05     0.152624     -66.8384 
0.000173522      4.63969      89.7498 
0.000157033     0.197181     -65.9711 
4.66763e-05      4.40480      104.735 
0.000104634     0.584228      51.9378 
1.02850e-05     0.438632      114.241 
0.000130417      1.07228      98.5724 
0.000195228     0.384386      51.3402 
0.000149451      6.88718      106.014 
3.73444e-05     0.609116      113.217 
9.37814e-06      4.87006      104.263 
9.30896e-06     0.447333      116.608 
6.20183e-05      4.89471      104.435 
4.44155e-05     0.384685     -27.9147 
7.06475e-05      4.39554      82.6833 
2.61830e-05     0.188432      148.019 
9.00868e-06      4.40359      98.0914 
3.46476e-05     0.189835     -71.5651 
1.73579e-05      4.40088      97.8400 
1.73821e-05      3.16392      87.1043 
1.72953e-05     0.917436      110.391 
8.63107e-06      4.92089      107.996 
8.54270e-06      3.73775      101.734 
0.000189253      1.10898      82.7307 
8.53110e-06      3.46097      88.6707 
8.48154e-06      4.05122      85.7511 
0.000748450      8.92735      98.8923 
0.00105297      7.24639      119.607 
0.000149797      7.95496      100.577 
0.000885503      7.32270      114.185 
0.000233718      7.95856      100.716 
0.000377972      7.29868      108.536 
0.000594343      8.90422      98.7836 
0.000147152      7.30355      98.6629 
0.000499668      7.30052      98.5057 
8.05365e-05      7.93939      100.742 
0.000326124      7.99626      99.7903 
0.000267472      7.86052      100.851 
7.99464e-05      7.88042      100.823 
0.000271604      7.30490      108.681 
0.000393348      6.96597      100.923 
5.38369e-05      5.80313      102.744 
0.000237473      5.80747      102.932 
8.29506e-05      7.31862      109.477 
0.000161865      7.86436      100.996 
0.000206154      10.1540      115.366 
0.000363045      10.3316      113.836 
0.000426668      10.1538      111.067 
0.000207939      10.1434      115.240 
0.000273435      10.3082      116.815 
0.000102030      6.97728      100.949 
8.02048e-05      7.30431      98.4656 
4.10620e-05     0.552327      95.2226 
6.04200e-05     0.195517      129.862 
7.99581e-05      2.11328      64.0355 
5.97972e-05      5.79723      102.955 
6.00460e-05      7.24380      119.571 
5.99313e-05      8.90652      98.8790 
1.99732e-05     0.579674      97.4378 
3.95324e-05      7.86952      100.988 
1.99208e-05     0.177222      135.000 
3.93401e-05      1.06046      98.1358 
3.91957e-05      7.31791      114.202 
1.97052e-05     0.604133      114.432 
1.95930e-05      1.11026      82.2313 
1.95767e-05     0.390554      50.2226 
1.94213e-05     0.576991      94.9988 
0.000126108     0.617068      114.882 
0.000144583      10.3126      116.863 
9.28946e-05      3.70288      102.155 
7.38800e-05      7.31362      109.822 
5.54992e-05     0.184676      139.449 
5.51748e-05      10.1722      115.257 
5.50960e-05      8.01623      99.7656 
7.19074e-05      10.1545      111.007 
3.63427e-05     0.561200      94.0638 
0.000141170      3.28294      87.5503 
5.41139e-05      4.22728      83.4767 
7.06789e-05     0.596454      50.4621 
3.59747e-05      1.76077      105.144 
3.51545e-05      10.1558      113.686 
3.60980e-05      1.91764      97.7813 
1.81145e-05      7.94319      100.885 
5.25231e-05      8.90733      98.9124 
1.77654e-05      10.1737      113.642 
1.76557e-05      3.68381      102.219 
5.23583e-05      10.6361      115.746 
1.76181e-05      7.22879      119.687 
0.000523158      8.21931      93.9052 
7.66296e-05      8.19910      93.9149 
5.55408e-05      8.26039      94.0267 
0.000123530      1.89757      97.8641 
6.92027e-05      8.17889      93.9246 
3.50065e-05      10.0985      112.348 
3.48610e-05      8.28348      94.2912 
0.00164942      10.0125      135.000 
-0.00110999      9.93118     -81.4309 
-0.000950007      10.0846     -145.995 
-0.000889052      10.1149     -41.6318 
0.000854707      7.94829     -130.102 
-0.00118543      7.75413     -54.3411 
0.000670329      5.62395     -2.24050 
0.000793494      10.9112     -111.957 
-0.000309373      3.46899      157.273 
0.000649631      9.59265     -130.263 
0.000567875      6.54049      179.652 
0.000618558      6.36040      89.6417 
-0.000229822      9.70211      7.46140 
-0.000560757      9.22565     -69.8361 
0.000485337      10.1533     -117.573 
-0.000611166      10.3472     -71.6373 
-0.000405106      6.07450      124.267 
0.000272765      10.8541     -131.412 
0.000336131      2.99383     -22.7988 
-0.000409966      12.6598      46.0879 
-0.000997718      11.7984     -142.024 
-0.000344290      9.52135     -109.766 
0.000216508      10.4429     -42.9821 
-0.000268807      9.76030      90.1189 
0.000403621      9.85855     -154.529 
-0.000538850      9.68202      7.47697 
0.000397274      5.17286      127.935 
0.000462999      7.33059      161.220 
0.000265195      9.49017      45.7689 
0.000337683      11.0189     -66.6928 
0.000463284      9.16829     -103.369 
-0.000329440      2.86333      12.1021 
-0.000198783      3.48768      157.402 
0.000326316      10.6727     -37.3863 
-0.000331346      8.42426     -141.361 
0.000327237      6.64737     -149.034 
-0.000262962      10.9733      148.338 
-0.000260262      7.12165      125.743 
-6.92015e-05      6.75796     -110.256 
-0.000385689      5.89044     -84.1507 
0.000201239      11.7670     -45.4134 
0.000321619      8.51042      122.718 
0.000320136      10.4287     -43.0552 
0.000318738      11.6387     -56.9933 
-0.000255343      6.75123     -110.101 
-6.64110e-05      10.1019     -41.5491 
0.000315512      9.83641     -39.2230 
-0.000224771      9.08263      109.152 
0.000187449      7.05663      145.274 
-6.57030e-05      3.26270      2.46494 
-0.000247364      13.2389     -45.9806 
-0.000129069      9.52429      10.6468 
-0.000125413      8.28173     -33.5778 
0.000312375      8.29006      51.8594 
-0.000124340      9.91114     -81.4135 
0.000184633      5.48947      22.2668 
0.000185812      9.16784     -87.6264 
0.000184384      11.6928      33.7717 
-0.000185579      11.5021      28.7939 
0.000246143      7.22723     -115.927 
-0.000123934      2.13685      136.893 
-0.000123055      3.46043      40.7792 
-6.30616e-05      10.1165     -41.4758 
0.000123669      11.7528     -45.4837 
0.000244396      2.82812     -135.000 
0.000182003      9.99818      134.918 
-6.25276e-05      12.6739      46.1491 
0.000181774      10.8835     -47.1598 
-6.23117e-05      10.9390      20.8854 
0.000181841      8.30090     -179.171 
6.19507e-05      3.28410      57.1814 
0.000120922      5.08058     -102.505 
-0.000121509      9.54347      10.6252 
0.000120751      8.13939      139.183 
-6.08946e-05      13.6644     -46.1859 
6.08322e-05      5.79190     -145.264 
-6.06829e-05      5.66635     -166.943 
-6.06449e-05      9.15708      138.894 
-6.02905e-05      3.28294      2.44973 
6.02142e-05      14.2849     -134.319 
5.99195e-05      12.5902     -41.9730 
-5.98524e-05      6.67530      118.253 
5.98283e-05      10.1584      7.12449 
-5.96392e-05      6.12449      136.191 
-5.94508e-05      9.20663     -69.7927 
5.94755e-05      8.27757      51.9697 
-5.93696e-05      7.50393     -171.414 
-5.93138e-05      10.9201      20.9233 
5.90382e-05      12.6530     -51.4819 
5.89105e-05      6.02203      128.392 
0.000726775      9.71264     -111.121 
-0.000451284      11.8040     -146.471 
0.000507304      6.83300     -156.363 
-0.00255576      11.2988     -117.746 
-0.000166184      6.50773     -67.2195 
0.000209922      8.28096     -179.029 
-0.000397944      2.18906     -95.2513 
0.000463735      5.70081     -91.0031 
0.000711819      11.1518      57.4499 
0.00108459      11.4308     -63.1675 
-0.000151681      11.1628     -46.6697 
0.000152738      10.2247      52.3883 
-0.000435256      8.16419      104.614 
-0.000102508      6.51890     -67.4466 
-0.000196151      6.36837     -153.513 
0.000239414      2.70462      176.612 
-0.000148261      3.13794     -17.0483 
0.000714460      11.4414     -130.036 
0.000324682      9.70563     -111.013 
5.13221e-05      10.9527      140.410 
-0.00107546      9.67870     -62.6939 
-5.00550e-05      9.82162      89.0676 
0.000338429      11.3680     -61.1798 
-9.43205e-05      10.1861     -100.978 
0.000136159      7.28154      4.40912 
0.000216522      10.9677      140.474 
-0.000261378      11.7146      58.0467 
0.000289068      9.88624      30.2492 
-9.06982e-05      9.43327     -68.2223 
-0.000269085      13.1466      137.033 
-4.87726e-05      6.51116     -67.6112 
-0.000177978      8.14588      171.668 
9.55202e-05      7.39291     -16.1779 
-0.000724688      12.1416      39.1155 
-0.000213072      3.73652     -82.0001 
-0.000534272      11.0331     -130.736 
-0.000646848      9.84083      89.1830 
-0.000140280      11.0388     -64.4575 
0.000131852      10.5709      139.681 
-0.000583770      11.7989     -146.336 
-4.75847e-05      9.81633      73.6708 
-0.000401421      3.71646     -81.9566 
-0.000134971      14.1855      44.3720 
0.000202527      11.6392      135.488 
0.000530491      10.9736      151.241 
-4.70296e-05      9.45961     -68.1539 
-0.000129527      4.87226      83.4025 
-4.65465e-05      6.50347     -67.7763 
4.63756e-05      7.56939     -136.607 
-9.01284e-05      9.78716      177.777 
-8.86650e-05      5.19294      169.122 
-0.000127914      9.94758      148.483 
-4.59755e-05      9.03938      125.271 
0.000164206      10.2366      52.3018 
4.56478e-05      5.54688     -123.976 
8.87782e-05      7.26293      4.58077 
-0.000320934      8.64381     -48.5651 
0.000215058      11.6015      52.1435 
-0.000172262      6.48100     -68.2676 
0.000449257      5.29667     -80.2201 
-0.000233533      9.85843      74.9472 
-8.58033e-05      6.73284     -86.4217 
-0.000162425      4.51253      77.1932 
-0.000107248      8.63362      120.485 
-0.000473713      13.7282     -47.2439 
-4.47079e-05      8.25014      41.0688 
0.000428306      7.37345     -16.2217 
0.000165606      10.0687      57.1627 
0.000182488      8.26145     -179.027 
-8.73715e-05      10.3241      36.4909 
0.000128842      10.7735      140.724 
-0.000332891      9.31784      172.601 
-0.000124775      4.59124     -65.5545 
-0.000183856      5.74653      177.208 
8.64125e-05      12.7218     -39.8960 
0.000275114      8.88472     -36.3027 
0.000268819      7.54074     -136.613 
-8.56303e-05      8.58707      56.4946 
0.000529187      5.55823     -124.149 
-0.000121890      3.16327     -17.2916 
-0.000261759      4.11547     -7.54356 
-0.000734316      11.0475     -64.3626 
-0.00105913      11.3079     -117.834 
-4.35672e-05      5.36001     -151.713 
4.34143e-05      10.1797     -38.3762 
-4.33062e-05      6.35899     -153.275 
0.000126568      11.7263      34.0155 
-0.000186891      9.75195     -129.173 
0.000426435      7.91809     -117.859 
-0.000117701      7.81954     -73.0501 
-4.28546e-05      11.2315     -43.7006 
-4.25564e-05      9.27516      172.689 
4.24790e-05      1.18835     -43.6440 
0.000159381      9.73536     -157.279 
-0.000505712      11.2295      129.218 
4.22196e-05      7.24129     -167.881 
-0.000597544      9.63439      79.7167 
-0.000159044      9.80821      177.663 
-0.000156170      8.49490      69.1732 
-4.17633e-05      8.60588      120.438 
0.000228113      8.24975     -28.0569 
-4.16480e-05      9.17917      135.970 
-0.000192734      10.8487      21.4077 
-0.000118696      9.71908     -118.514 
-4.13893e-05      11.7088      57.9121 
-0.000309381      11.2462     -43.6293 
0.000209415      10.1689     -6.66562 
8.02914e-05      3.73177     -28.4872 
-0.000289655      7.76670     -71.8451 
-4.09512e-05      5.70879      114.857 
-4.08195e-05      6.35073     -153.032 
-0.000115658      1.98190     -92.3218 
4.08250e-05      7.66540     -26.4998 
-4.07668e-05      4.01262      66.5031 
0.000117253      12.7368     -39.8397 
7.97363e-05      9.92665      170.840 
-0.000596117      14.1710      44.4293 
-4.05167e-05      10.6445     -161.598 
-0.000218861      9.49239      78.4538 
-0.000177117      2.20924     -95.2032 
0.000180200      10.2075     -38.3973 
0.000261141      2.68439      176.587 
0.000144355      7.22148     -167.847 
-3.98475e-05      13.7206     -46.1811 
0.000275519      11.7154      33.9364 
0.000678126      11.6175      52.2049 
0.000521794      10.1488     -6.67890 
0.000149520      5.68095     -91.2110 
0.000306716      9.75405     -157.325 
-3.94081e-05      9.21773      139.222 
-7.56259e-05      11.6731      57.4531 
-7.43649e-05      9.24814      37.2678 
-7.34451e-05      6.35995     -152.870 
-3.90863e-05      9.16515      135.886 
-0.000353697      12.4125      52.5953 
0.000114203      10.1102      32.1519 
0.000107733      9.69374     -111.164 
-0.000137836      8.74700      166.915 
-0.000104286      5.17378      169.081 
-7.23973e-05      8.77303      70.6956 
-3.87564e-05      11.1411     -24.7250 
3.87650e-05      10.7584      140.658 
-7.30452e-05      6.47381     -68.4280 
0.000285636      7.68354     -26.4324 
-0.000142172      4.00488      66.7591 
-0.000227216      7.45307     -3.38238 
0.000178513      11.7934      42.3181 
-0.000250541      9.65975      21.6245 
-3.79746e-05      9.20239      139.140 
0.000334149      12.1427      48.5399 
-0.000874216      13.1405     -46.1707 
-7.10025e-05      3.71456     -168.511 
0.000229159      3.80571      23.8661 
0.000207521      9.90665      170.821 
0.000268354      9.29135      162.074 
-0.000108036      8.52374      120.294 
-0.000629096      13.1911      39.2146 
-6.88982e-05      6.71337     -86.4113 
7.27403e-05      5.46814      159.441 
-0.000107442      9.34125      41.0915 
0.000214395      11.9423      146.336 
0.000138722      9.79214      167.497 
-3.71715e-05      8.57019      56.4199 
-0.000102935      9.13703      135.885 
-7.23277e-05      9.78930     -103.466 
-0.000727632      11.1149     -24.6722 
0.000107953      10.7142      140.604 
-0.000193868      9.72877     -118.619 
-0.000249580      5.09499     -132.774 
-7.17033e-05      9.28264      91.3572 
0.000105698      12.3992      138.597 
-0.000104720      10.1536     -45.0000 
-7.16472e-05      7.48445      148.772 
-0.000342469      1.60703      16.6326 
-0.000320145      9.65433      79.7382 
-0.000725312      9.20044      138.968 
0.000217821      9.90538      139.750 
-3.62247e-05      7.01331     -170.647 
7.03332e-05      10.0581      57.2560 
-0.000166277      7.99242     -37.2701 
6.88377e-05      3.78719      23.9902 
0.000475514      12.0826     -131.712 
0.000317683      10.1205      32.2454 
-3.57814e-05      4.02101      165.894 
-7.92887e-05      9.73021     -45.0000 
6.70657e-05      10.1863     -141.938 
0.000308607      6.09268     -147.872 
6.59453e-05      1.53416     -39.7015 
-3.53573e-05      11.8847     -50.1203 
0.000220404      6.93061      134.061 
-0.000161501      11.1326     -24.6303 
-3.51004e-05      11.6650      142.386 
-0.000167476      11.7043      58.1278 
0.000305040      12.7653     -39.8513 
-0.000100384      9.80906      177.545 
-9.61675e-05      4.16333     -67.9934 
-0.000180154      8.50778     -148.066 
-3.46563e-05      8.55900      56.5328 
-0.000183830      3.13205     -16.6940 
3.44506e-05      9.02980      51.0242 
0.000130958      10.2255      101.509 
-0.000184832      3.99718      166.107 
0.000291583      5.70120     -91.2067 
0.000153508      12.0491      45.2675 
-0.000277294      9.70156     -45.0000 
-0.000688354      8.65315     -5.03969 
-3.42172e-05      7.18702      68.7907 
0.000157783      10.6992      140.538 
0.000376230      11.3479     -35.3148 
3.41409e-05      3.72215     -28.2131 
0.000157476      2.91024     -156.072 
-0.000157298      9.15715      140.050 
-0.000609698      10.0354      105.727 
-3.39027e-05      6.99666     -170.456 
9.66958e-05      12.5159     -134.937 
-9.68495e-05      12.1288      39.0412 
-0.000125427      4.25480     -123.687 
0.000113334      8.42779      87.5506 
6.46147e-05      9.71346     -47.8368 
0.000176351      8.67994      80.4505 
3.35282e-05      11.0418      31.4432 
9.53798e-05      12.3184      45.4615 
-0.000550377      11.8786     -144.249 
6.51598e-05      10.9548      140.556 
-0.000125696      9.78477     -103.355 
-0.000541667      8.67962     -93.8319 
-0.000337871      11.1450     -25.9664 
-0.000123830      8.86179     -128.032 
-0.000154527      3.68132     -160.978 
-9.55419e-05      11.4103      123.995 
-6.34582e-05      9.96422      148.541 
-0.000317545      11.2010      129.204 
6.48321e-05      8.85640     -36.2747 
0.000173221      9.82552     -91.8644 
-0.000281075      7.44059     -66.0510 
-6.97177e-05      11.5443      126.830 
6.44306e-05      8.24636     -116.812 
-0.000119408      1.98278     -92.8851 
3.26650e-05      10.8316      31.2531 
0.000198300      8.40755      87.5447 
0.000234228      12.7166      43.7878 
-0.000324355      7.91226     -70.9705 
3.23992e-05      12.3840      138.535 
-9.32175e-05      8.12756      169.079 
-3.22850e-05      9.26971     -69.8077 
0.000206500      10.6443     -37.3659 
-9.05178e-05      7.16813      68.7321 
-3.21112e-05      11.1444     -45.2919 
0.000227115      10.3157      82.1988 
0.000422493      11.4727     -147.170 
-5.40629e-05      8.81555      126.792 
-0.000412190      4.69122     -114.163 
-0.000121788      11.5881      131.640 
-0.000224296      9.06350      109.194 
-0.000115591      9.36927      41.1065 
-0.000232489      9.91222      27.6495 
-0.000343323      11.4830      35.5721 
0.000142586      8.85010     -66.5628 
0.000373900      10.7229     -51.0559 
-0.000170008      10.9943      38.8717 
-0.000112587      8.29536      125.185 
-5.97458e-05      9.24397     -69.8778 
-0.000256824      11.7109      58.2643 
0.000255086      8.19286     -141.142 
0.000297066      10.2491      52.2122 
6.05352e-05      9.01464      50.9462 
0.000112520      11.8078      42.2543 
8.88001e-05      12.4121      138.529 
-3.09547e-05      3.98912      63.1747 
3.08357e-05      12.2844      47.2427 
0.000466147      9.82198     -154.165 
-0.000399498      11.5720      126.852 
0.00107757      10.2294      101.617 
0.000227456      11.0882     -52.6974 
-0.000214897      11.3258     -117.786 
-0.000106656      5.71734      115.041 
0.000115012      9.88739      170.803 
3.04007e-05      8.22240     -13.3603 
8.91479e-05      11.1627      57.3622 
5.84112e-05      7.34099     -16.4603 
-0.000324044      11.7821     -146.282 
3.01870e-05      5.87546      55.1165 
-3.01550e-05      8.76635      70.8206 
0.000192473      10.9705      140.623 
0.000336175      5.90323     -8.37627 
5.81788e-05      8.71714      164.021 
5.88628e-05      12.8296      133.926 
0.000205178      12.4023     -40.2907 
-8.35914e-05      4.58289     -65.7851 
-2.98510e-05      7.45662      148.825 
-2.99145e-05      4.49030     -71.5681 
-8.57921e-05      7.17618      42.6312 
2.98169e-05      5.38204      157.722 
2.97755e-05      3.71398     -28.6363 
-5.82846e-05      8.02021     -37.3009 
-8.45079e-05      13.0673     -135.249 
-5.79894e-05      11.1860      54.9730 
-8.45575e-05      12.9892     -46.8704 
5.61125e-05      6.82521     -156.513 
-2.95092e-05      11.6781      57.2371 
2.95163e-05      9.74208     -47.8284 
0.000189764      12.2982      47.1734 
8.21819e-05      10.8492     -109.604 
-0.000109600      8.88152      91.0312 
0.000134522      8.32904      147.951 
-2.93206e-05      5.37542     -150.099 
5.70016e-05      11.3955     -61.1396 
-0.000108231      11.6846      126.439 
5.49707e-05      7.52603     -136.507 
-2.92435e-05      8.99768     -171.564 
0.000127932      6.12224      38.3659 
-8.26187e-05      5.52969     -149.816 
-0.000274906      11.3994      123.914 
-0.000253735      9.33585     -41.6114 
-2.89380e-05      12.3195      141.790 
-5.69377e-05      11.0353     -130.588 
8.27729e-05      12.1450      48.6722 
-0.000197844      12.9754     -46.9357 
2.87899e-05      8.87274     -36.1973 
-0.000234536      10.3347     -107.803 
-2.87175e-05      12.3253      146.180 
-8.22524e-05      9.86819      92.3228 
8.33107e-05      11.4288     -129.961 
2.86745e-05      11.6111      135.487 
-0.000153665      9.46068     -168.785 
-0.000202358      9.79283      137.152 
-0.000109613      7.24039      148.900 
0.000108964      9.91699     -71.4197 
0.000132065      7.92723     -117.984 
-0.000132002      11.6016      131.715 
8.09588e-05      12.2214      133.806 
5.52726e-05      10.4860      119.353 
-0.000179007      12.8400      39.6911 
-2.83610e-05      4.40937     -116.098 
-0.000372666      10.7836      130.337 
0.000232264      11.1798      57.4182 
-8.23344e-05      5.77122      176.422 
-0.000156225      4.29361     -157.258 
-0.000129320      8.75972      70.9458 
0.000631151      12.8431      133.989 
-0.000587392      12.8802      41.4123 
2.80489e-05      7.70418      121.628 
-5.42049e-05      7.16184      42.7369 
-0.000199709      8.89024     -128.055 
2.79724e-05      10.0243     -158.708 
5.43213e-05      6.60576      80.7634 
0.000131146      7.02398     -91.9591 
-0.000198736      9.17269      140.131 
0.000101456      9.30991      162.111 
-0.000130436      8.03634     -37.2134 
-2.77454e-05      9.98151      148.602 
-5.33183e-05      10.1632     -100.891 
0.000177733      10.6835      140.469 
0.000124844      7.68885      28.7662 
0.000131811      9.57036      160.468 
-0.000163601      8.10767      169.052 
-7.84062e-05      5.57168     -18.6302 
0.000481553      9.96400      145.385 
5.35069e-05      10.7166     -126.271 
8.08622e-05      11.1027      117.810 
0.000121527      9.34706      166.263 
-2.74054e-05      8.88945      128.880 
-0.000149280      6.60114     -117.031 
-0.000246261      11.1743      55.0581 
7.83033e-05      6.58893      80.5677 
-2.72734e-05      4.27105     -123.542 
-2.72649e-05      10.5362     -45.0779 
0.000146697      9.86013     -122.241 
-2.72320e-05      6.74711      148.948 
-0.000153929      11.1051      124.063 
0.000145763      11.0523      31.5328 
-0.000100798      11.6831      57.0162 
2.71121e-05      9.72849     -47.9169 
-0.000100921      9.76506     -103.383 
-0.000128294      6.58609     -87.5643 
2.70978e-05      9.49579     -78.9520 
0.000100964      3.44890      165.562 
2.71075e-05      10.7286     -126.359 
-9.61201e-05      11.0226     -130.511 
-5.23316e-05      5.15389      169.039 
0.000125439      7.15702     -16.5635 
0.000360551      10.1954      6.98379 
0.000102255      7.67694      121.576 
0.000230317      13.8916      133.601 
-2.68383e-05      9.46850      78.5494 
5.17858e-05      8.69766      163.984 
-5.30317e-05      6.20593     -105.513 
4.99054e-05      6.68363      137.912 
-0.000161056      9.46148      89.0321 
0.000315099      10.5826     -117.583 
0.000265153      10.2070     -12.1030 
0.000354183      8.12340     -74.2858 
2.64778e-05      6.11023      154.606 
-5.02932e-05      11.4460     -46.6284 
-0.000196535      8.87369      128.962 
-7.60462e-05      12.3036      141.731 
2.63466e-05      12.4255      138.459 
2.63315e-05      10.1335      139.803 
0.000225867      6.91607      134.178 
-0.000122670      12.7038      128.224 
-0.000413159      12.2757     -56.3624 
0.000194863      7.69357      121.500 
-5.03745e-05      10.5219     -45.1560 
-0.000100077      9.64051     -160.361 
7.33625e-05      9.49969     -78.8321 
5.04037e-05      3.69687     -28.7812 
2.60323e-05      12.3323      45.5251 
5.08461e-05      10.9642      151.330 
-2.59685e-05      10.7950     -56.1034 
7.48312e-05      11.3857     -61.2289 
-2.59706e-05      8.65108      120.417 
-0.000454826      7.58448      46.9244 
-7.33213e-05      12.3140      146.259 
4.99968e-05      9.78993     -37.9486 
0.000355976      7.37664     -111.138 
7.59130e-05      10.7480     -126.680 
-0.000122558      5.75100      176.409 
-2.57301e-05      8.72727      166.885 
0.000168584      11.1122      117.903 
-2.57258e-05      7.25775      148.982 
2.56547e-05      6.08660     -147.619 
9.67793e-05      5.82000      0.00000 
-0.000592409      11.7002      58.3487 
0.000289754      11.1043     -52.7607 
-2.55095e-05      9.92951      27.5972 
-0.000189182      9.59674     -95.0196 
-9.91077e-05      6.22545     -105.463 
5.00218e-05      11.4158     -129.883 
-0.000337306      14.1006     -134.368 
-0.000337222      4.06528      2.82491 
-0.000507824      11.0292     -64.3171 
6.64553e-05      11.8673      43.9752 
-0.000350212      7.22995      149.037 
0.000345149      12.1809     -41.8062 
0.000283223      12.3625     -133.820 
0.000369163      12.2839      47.1116 
-4.85376e-05      1.96368     -93.5053 
-7.30477e-05      9.90641      92.0837 
2.48446e-05      10.1872     -12.1269 
2.47804e-05      12.3465      45.4580 
2.47636e-05      8.83151     -66.5106 
-0.000153002      4.28610     -157.498 
-0.000897967      10.0549      105.696 
4.86951e-05      9.59624      160.395 
2.47043e-05      6.56342      79.8194 
0.000711589      11.4488     -63.2133 
-9.52392e-05      11.4292     -121.548 
2.46905e-05      7.29358      50.9001 
7.12817e-05      12.6285      37.3411 
-2.45916e-05      10.7669      22.0387 
0.000214190      9.80595     -91.9866 
0.000156763      7.41333     -150.944 
-9.22222e-05      8.40050      125.012 
0.000125075      6.10308     -147.717 
-6.93520e-05      8.89585      135.455 
2.44749e-05      12.1664     -41.8674 
0.000454233      10.4112      107.668 
2.45061e-05      10.4955      119.446 
-6.68339e-05      5.71568      29.7962 
9.47390e-05      9.58946      160.509 
-9.31743e-05      11.7929     -146.203 
-9.50866e-05      7.56625      56.0987 
0.000113345      12.5237      138.366 
0.000138647      7.30873      50.9966 
-2.42967e-05      7.43318      101.642 
-2.42937e-05      11.5670     -132.268 
-4.73856e-05      10.0571      59.6602 
6.79651e-05      6.56703      79.6454 
9.21799e-05      10.7046     -126.184 
-0.000334555      9.93067      97.7560 
-0.000133069      11.2603     -43.5608 
-2.42170e-05      8.97764     -171.545 
0.000243965      12.1704      47.1313 
-0.000350655      8.00795     -37.1856 
2.41525e-05      9.91848      139.661 
0.000114373      7.66675      121.451 
6.84465e-05      12.0492      45.4037 
-4.69658e-05      5.22180     -22.0460 
0.000243173      11.7386     -34.4489 
0.000113561      6.63000     -148.944 
2.40196e-05      11.5287     -57.4685 
2.39999e-05      1.14583     -47.1231 
0.000115049      10.3130      82.3103 
-6.93399e-05      11.6151      131.789 
0.000257884      8.31251      147.879 
0.000112922      10.1666     -6.55221 
0.000175905      10.7440     -126.826 
-2.39700e-05      11.7458     -119.926 
-0.000113517      7.90592     -71.1042 
0.000133621      10.9581      140.702 
4.71260e-05      6.42050     -164.274 
9.10278e-05      8.67819      163.947 
6.85759e-05      7.02467     -92.1182 
-2.38686e-05      8.29232      43.0455 
-0.000135934      12.8936      41.4799 
0.000374357      13.9063      133.544 
2.38153e-05      8.22155     -12.0750 
-4.59194e-05      11.8109     -141.946 
-0.000163188      11.2005      64.6230 
4.66500e-05      6.60254      80.9370 
2.36465e-05      11.4028     -129.805 
0.000155282      9.77541     -170.460 
-0.000152642      12.9214     -50.1501 
0.000457192      12.3328      124.695 
8.90580e-05      10.9820      151.381 
0.000152249      9.21500     -22.7250 
-0.000131794      14.1571      44.4846 
0.000112435      11.5017     -57.4981 
-4.58182e-05      11.0570     -150.883 
0.000272021      5.70167     -91.4102 
-8.89828e-05      11.7559     -120.012 
-0.000312681      14.0719     -134.367 
-0.000133749      10.3481     -107.666 
-0.000176443      9.65959     -160.401 
-2.33960e-05      10.9821      38.7925 
-0.000269202      6.23982     -105.241 
-6.48974e-05      7.53449      103.037 
-6.47449e-05      3.97752      166.037 
-0.000442573      11.4465     -121.495 
0.000132172      10.2079     -117.921 
0.000275729      9.61533      160.435 
-6.55522e-05      8.99473     -171.692 
2.31695e-05      10.0314     -158.604 
-6.83725e-05      13.3420     -136.762 
-4.53202e-05      10.7926      22.0995 
0.000244821      11.9396     -53.0343 
-6.71086e-05      11.4461      55.0326 
4.53795e-05      6.63756     -144.441 
-0.000105109      12.2882      141.675 
2.30305e-05      9.89964      135.329 
0.000210296      7.13760     -16.6098 
8.86317e-05      8.22581     -12.2130 
-4.50341e-05      11.0889      124.119 
-6.60162e-05      9.04507      109.235 
-0.000131193      12.9515     -138.631 
-6.67841e-05      9.92594      91.9625 
0.000412253      11.1903      57.3340 
-4.36306e-05      6.59196     -116.874 
-4.45894e-05      4.19365     -123.912 
0.000293433      12.0961     -131.784 
-0.000149128      7.56037      55.8904 
4.45136e-05      1.14775     -48.5251 
2.28284e-05      8.97827     -82.4455 
2.27030e-05      10.6238      61.3133 
-6.51006e-05      10.8221     -56.0752 
0.000131430      12.3176      48.8853 
4.45493e-05      11.3903     -129.729 
-0.000129426      11.6937      56.9361 
0.000124261      10.5501     -166.069 
-4.46607e-05      10.4594      155.003 
-0.000265721      5.75226      176.215 
2.26343e-05      10.3298      171.650 
-2.26422e-05      5.81266     -18.8677 
-2.25455e-05      8.65845     -48.6506 
-0.000542168      12.6913      128.152 
2.25446e-05      12.6248      37.4700 
-0.000149771      8.84625      128.944 
0.000240457      10.3491      171.666 
-2.25518e-05      10.3288     -107.700 
0.000127686      11.8086     -134.930 
-8.06954e-05      9.83633      137.226 
-2.24029e-05      8.88119      90.9053 
-6.60473e-05      9.73917     -129.080 
0.000201364      8.10689      138.802 
0.000174748      6.34927      35.6455 
0.000322361      12.7938     -39.8628 
-0.000351028      13.5222     -43.9208 
-0.000147000      10.8187      22.1549 
-8.28277e-05      5.20303     -22.1298 
0.000123093      12.2354      133.874 
2.22144e-05      9.91079     -71.5266 
2.21993e-05      3.67912     -28.9332 
-0.000324051      13.3286     -136.823 
8.25570e-05      8.44038    -0.137534 
0.000308960      10.5732     -117.485 
8.38926e-05      8.86702     -71.3182 
0.000436219      13.8924     -46.5167 
-4.28640e-05      6.68295     -88.2820 
-8.38183e-05      8.66791      120.352 
0.000103265      8.70582      67.4402 
-0.000103231      5.83113     -18.8057 
2.19664e-05      10.0196      107.423 
4.28860e-05      9.86650     -122.079 
0.000158432      12.6408      37.4141 
8.31043e-05      10.6931     -126.100 
6.19719e-05      11.3645     -35.2558 
-0.000188173      11.5503      124.489 
-0.000219415      9.66942     -62.8006 
-0.000314482      13.5076     -43.9804 
4.22827e-05      7.70101     -26.3678 
-0.000348177      8.17736      55.2600 
6.24019e-05      9.26819      29.3295 
-0.000103497      8.90178      91.0288 
-2.15792e-05      11.6427      131.797 
4.21997e-05      4.42214     -144.943 
-0.000119345      9.23589      127.168 
0.000164462      9.82884     -8.54396 
0.000487377      10.2155      6.96997 
0.000162039      7.32150      50.8734 
0.000293022      12.3918     -136.310 
-0.000232355      8.63195     -4.91710 
8.45968e-05      10.7952      118.797 
-7.81195e-05      8.43265      50.0032 
-0.000123317      9.59853     -95.1401 
6.20531e-05      11.3774     -129.651 
-0.000101615      6.35855      112.370 
0.000178509      8.48681     -58.2943 
-0.000138780      10.4777      155.050 
-7.97154e-05      11.1893      136.231 
-0.000290212      12.9088      41.4203 
0.000181020      12.3310      48.8144 
0.000382391      12.0382     -128.051 
2.13186e-05      6.62580     -144.584 
2.12338e-05      7.96352     -118.176 
4.22402e-05      10.3103      82.4219 
2.12290e-05      10.2956     -142.975 
7.92694e-05      7.65605      126.928 
-8.21374e-05      13.7431     -47.3012 
-8.23893e-05      10.7430      130.243 
0.000101900      6.65743     -148.890 
-0.000298119      10.3613     -107.526 
4.21905e-05      10.3894      66.3955 
-4.17242e-05      9.65140     -62.7456 
-6.06118e-05      11.8229     -141.872 
-6.23706e-05      4.22493     -87.2819 
-9.97379e-05      8.86720      135.456 
0.000202433      8.14290     -74.3244 
0.000100910      11.4908     -57.5833 
-0.000384379      12.9667     -138.691 
-0.000290376      11.5980     -41.9947 
-0.000139469      2.54240     -160.715 
0.000140207      6.55065      79.4457 
0.000319683      12.5383      138.426 
-2.10766e-05      6.47580     -153.200 
2.10076e-05      8.38566     -131.714 
2.10027e-05      9.20478      62.4322 
4.10185e-05      7.66135      28.7063 
8.11194e-05      11.0626      31.6190 
-0.000194929      9.87204      75.0902 
-2.09335e-05      9.72731     -68.6566 
-5.88934e-05      10.9669      38.8563 
-9.91843e-05      9.71114     -129.066 
2.09061e-05      8.65944      163.911 
0.000235795      5.92254     -8.34878 
-8.00244e-05      8.35005      110.907 
-8.08754e-05      11.6562      131.871 
0.000208895      10.3118     -143.043 
4.03505e-05      9.89951      135.163 
0.000190866      8.20675     -12.2418 
-0.000100219      7.93803     -70.8799 
2.08015e-05      5.83130     -161.817 
0.000100624      8.92864      46.9071 
0.000158067      10.3973      66.2970 
-2.07451e-05      11.0747     -150.934 
-2.07229e-05      7.16604      168.408 
4.08107e-05      11.8278      149.967 
-0.000100327      10.0826      93.8663 
9.93207e-05      6.64232     -144.685 
-0.000134116      9.85066      137.303 
5.92332e-05      9.78793      167.609 
-4.06691e-05      10.8334     -55.9863 
0.000398522      10.1985     -117.821 
6.07570e-05      10.2615      52.1228 
-2.06163e-05      8.90561     -127.977 
-0.000361440      12.3032     -56.3342 
0.000263567      8.37110     -131.802 
4.05811e-05      1.13443     -49.2918 
-0.000264651      4.24538     -87.0314 
2.05841e-05      10.8801      119.392 
-0.000135563      9.67868     -160.441 
-4.04497e-05      10.3531      129.748 
-7.87045e-05      8.69776     -93.6901 
-2.05323e-05      9.46464      78.6651 
-0.000191010      7.18589      168.440 
-0.000170080      12.3201      35.4180 
-3.99256e-05      11.4995      35.5133 
-3.99487e-05      11.4627      55.0906 
-0.000115559      10.8611     -55.9608 
-2.03930e-05      10.2297      38.7287 
0.000359240      10.8901      119.485 
-0.000283241      9.63080      79.8353 
-7.36389e-05      9.70845     -68.6131 
-7.82352e-05      9.46117      89.1502 
-0.000278365      11.7217      119.319 
4.03757e-05      10.3078      82.5294 
7.89887e-05      9.60534      43.5661 
0.000170756      7.04094     -74.3448 
-2.03076e-05      11.5957     -132.275 
-5.79232e-05      9.94477      91.8420 
3.99459e-05      10.3913      145.271 
-9.66807e-05      9.40743      95.7361 
0.000173265      7.68340      121.375 
0.000397676      13.8924      133.483 
-5.85372e-05      12.9478     -46.9398 
2.02404e-05      11.5327      121.814 
-0.000174377      5.60448      24.0014 
0.000116151      12.2923      43.7460 
-0.000130880      10.1028      93.8585 
3.91325e-05      12.5254     -39.1037 
-5.96564e-05      11.7048      56.8529 
0.000423021      12.3050      124.674 
7.66486e-05      4.25159     -48.8141 
5.80543e-05      7.43986     -150.886 
2.01319e-05      3.82356      23.7478 
9.67979e-05      10.9723      151.474 
-9.75815e-05      7.59929      47.0287 
3.94204e-05      8.66508      163.783 
-3.94048e-05      11.2750     -43.4899 
3.91024e-05      10.7854      118.703 
-0.000342402      11.5614      124.569 
-0.000166609      11.7661     -120.097 
-9.46351e-05      11.0375     -130.445 
-1.99815e-05      11.8152     -146.389 
-0.000263943      13.9166     -135.465 
-9.61218e-05      12.9151      136.318 
-1.99365e-05      8.95392     -116.967 
7.76022e-05      11.7104     -34.4232 
3.90410e-05      12.4975     -39.0880 
1.97819e-05      10.6321     -37.2791 
-0.000115418      4.08477      2.81142 
-5.84279e-05      10.8375      22.1145 
-1.97668e-05      8.42763      158.857 
5.82511e-05      10.2332      6.84778 
1.97386e-05      11.3645     -129.572 
-3.92033e-05      9.58631     -68.8424 
-0.000625953      13.9541     -47.2075 
-0.000278496      7.39567      93.7232 
0.000247977      11.0453      31.6741 
-0.000114402      12.6412      131.279 
5.80456e-05      10.7400     -126.977 
-0.000112115      9.06250     -84.4263 
-0.000170047      10.5757      130.015 
9.53133e-05      9.22284     -22.8411 
5.76933e-05      9.79465     -170.479 
-3.85983e-05      12.5909      38.7435 
0.000992996      11.4401     -63.3005 
1.96334e-05      9.32811      166.234 
-1.96218e-05      11.0608      124.091 
-1.96216e-05      11.8098     -146.257 
1.95922e-05      5.64308     -144.957 
9.54760e-05      12.3277     -34.8257 
-1.96085e-05      9.05177      109.356 
-3.79829e-05      8.51384      69.2217 
1.95460e-05      11.4617     -147.255 
-9.57358e-05      9.60037     -95.2605 
0.000113247      7.45757     -150.962 
-0.000315264      4.04775      53.6400 
1.95209e-05      8.12025      138.694 
-3.83386e-05      12.3595      128.891 
1.94988e-05      10.1883     -6.65289 
-0.000150245      11.6697      131.945 
-9.52207e-05      8.90145      90.9032 
0.000239235      11.5434      121.900 
9.41875e-05      6.90155      134.295 
-0.000203418      11.3778     -154.155 
1.93672e-05      10.7271      140.521 
-0.000334102      10.0813      93.7556 
-0.000112644      9.64787      82.2581 
-1.93467e-05      9.39786      41.1184 
-0.000260962      11.9041      121.955 
1.93422e-05      8.87329     -71.1988 
3.81810e-05      10.2651      52.2815 
-0.000131393      12.7837      139.633 
-5.63402e-05      10.9668      41.4522 
7.42861e-05      10.6812     -126.012 
-0.000167951      13.1883      39.3385 
5.73927e-05      12.4638      48.1212 
0.000350209      8.11793     -74.4234 
0.000168276      9.54338      63.2214 
-0.000130608      8.48668      24.2104 
-1.92304e-05      8.81776      128.924 
-9.44400e-05      4.75190      45.6846 
-7.45382e-05      11.6088     -132.346 
-1.91393e-05      12.4116     -132.846 
1.91771e-05      10.6917      134.394 
-0.000184114      8.96278     -117.078 
9.27946e-05      10.7522     -127.063 
1.91508e-05      9.28520      29.2705 
-1.91279e-05      8.42810      125.048 
-7.54066e-05      9.56742     -68.7986 
-0.000222206      8.45859     -144.430 
3.75707e-05      10.3052      82.6411 
-3.76359e-05      10.2170      38.6401 
-5.62074e-05      11.7159      56.7700 
-3.75593e-05      10.2335     -168.272 
0.000110984      9.99114      145.356 
3.79949e-05      11.1256      126.006 
0.000111576      9.80955     -8.56089 
3.76444e-05      10.1988      115.307 
1.90237e-05      9.87727     -122.178 
-9.28151e-05      9.05266     -93.0410 
0.000238493      11.0764     -52.7777 
0.000129934      8.97099      168.165 
-7.23752e-05      7.07538      117.071 
-0.000110392      5.87361     -106.217 
1.89826e-05      4.27598     -17.4206 
-0.000311711      13.3144     -136.765 
-3.75804e-05      9.52357     -97.6021 
9.30724e-05      12.2490      133.940 
-1.89909e-05      2.55521     -161.278 
-3.75834e-05      10.0162      126.801 
1.89623e-05      10.7562     -126.912 
0.000109924      10.3951      66.0476 
3.76971e-05      9.43376     -74.2524 
5.58127e-05      12.1852      47.1961 
3.77918e-05      12.3157      48.7523 
-3.75262e-05      11.9159     -137.177 
-7.38887e-05      9.31281     -148.973 
-1.88776e-05      9.80136     -179.066 
5.56352e-05      12.3490     -133.754 
1.88577e-05      12.1285     -40.5186 
-5.56802e-05      9.21376      138.873 
-1.88706e-05      6.41067     -60.8757 
-0.000128432      10.0335      109.808 
-5.49411e-05      13.2529     -136.039 
1.88231e-05      8.37622      86.4406 
-5.59244e-05      10.8555      22.0757 
9.30388e-05      12.4919      48.1167 
7.40424e-05      6.55439      79.2715 
1.88037e-05      11.4446     -147.200 
-3.68712e-05      12.5629      38.7320 
3.70829e-05      8.32330      147.761 
-5.59759e-05      10.3738     -107.386 
-0.000310598      5.75363      176.014 
5.49639e-05      5.66414     -145.356 
-3.72671e-05      6.50260     -153.512 
3.69016e-05      8.42009      0.00000 
1.87242e-05      9.81228     -154.011 
-1.86795e-05      12.1500      141.281 
-0.000328578      13.4086      130.340 
1.86256e-05      10.6641      134.393 
1.86464e-05      8.69807      67.5634 
-3.69412e-05      7.59833      46.8128 
0.000163834      11.1137      125.921 
-0.000146761      9.60217     -95.3764 
9.17536e-05      12.3291      48.6815 
-5.55050e-05      9.46089      89.2729 
0.000146173      5.71608     -40.5972 
0.000146747      11.0018      27.0299 
3.70253e-05      9.12456     -29.2633 
-0.000127586      4.76421     -139.087 
3.67941e-05      8.64563      163.745 
0.000236573      9.43908     -74.1384 
-7.36744e-05      13.8313      135.116 
0.000109618      10.9626      151.567 
0.000127622      9.85019     -110.938 
-0.000200097      9.40543      95.6133 
-7.30587e-05      4.06629      3.09948 
-0.000182245      10.3552     -107.419 
-3.66767e-05      11.8383     -141.930 
3.67286e-05      5.23720     -108.020 
3.66100e-05      4.23877     -49.0125 
1.85109e-05      8.37750      86.3023 
1.85882e-05      11.4669     -34.4118 
1.84617e-05      9.85744     -111.048 
0.000165183      12.2775      124.648 
-0.000345291      8.92128      91.0266 
1.84490e-05      5.67569     -145.188 
-9.13474e-05      9.82162     -179.068 
9.12404e-05      12.2835     -34.8541 
-0.000127247      14.1847      44.4856 
-3.66530e-05      2.53603     -161.131 
-1.84292e-05      10.4961      155.097 
1.84129e-05      7.11891     -16.6547 
0.000127148      12.1004     -40.5107 
-0.000163644      4.76641      45.8547 
-5.50137e-05      9.54191     -68.8696 
5.46378e-05      10.2075      115.410 
0.000236150      10.1146      81.3553 
7.27192e-05      12.8572      134.054 
-1.83890e-05      8.02410     -37.0982 
-5.47696e-05      10.0318      126.734 
-7.27792e-05      12.9005      136.256 
-0.000326661      14.0861     -134.426 
3.66266e-05      10.7120      140.454 
1.83541e-05      10.8443     -33.7220 
0.000127262      10.3942      168.342 
-9.09440e-05      9.52091     -97.4812 
0.000253957      13.1010      46.6083 
-5.46834e-05      5.59428      24.2754 
-0.000199604      8.90261     -137.278 
-9.04969e-05      4.18940      122.321 
-0.000108895      6.39297     -60.7873 
-0.000181305      12.6131      131.273 
-0.000163325      10.9000     -55.8417 
1.83578e-05      11.8229     -135.000 
-9.07214e-05      11.9307     -137.243 
-3.64186e-05      12.4127     -132.714 
-0.000235737      10.0699      12.2704 
-1.82900e-05      11.4909      55.0656 
0.000199518      12.5054      48.0475 
-5.44994e-05      6.52074     -153.591 
5.45433e-05      8.94449      88.2068 
-0.000235470      5.68079      27.4688 
0.000145098      9.61147     -8.73868 
-0.000145002      11.7266      56.6902 
1.82577e-05      8.36255      5.76277 
-0.000289992      11.5729      124.651 
9.06937e-05      11.6943     -34.4773 
3.63292e-05      7.12853     -124.137 
5.44549e-05      12.8213     -39.8738 
-9.05838e-05      13.6511     -132.030 
1.82584e-05      6.63106     -144.823 
9.06079e-05      10.8168     -33.6901 
0.000126922      6.22938      146.921 
1.82463e-05      11.2320     -57.9504 
-5.45487e-05      9.42650     -68.9897 
0.000470986      12.1714      124.422 
1.81937e-05      10.0725     -77.1513 
-0.000108850      9.46066      89.3956 
5.43907e-05      8.21091     -12.3749 
0.000235505      13.0241     -39.7054 
-7.25160e-05      10.8743      22.0356 
0.000199598      12.2100      124.524 
-1.81782e-05      10.6128     -74.3679 
1.81759e-05      9.79802     -170.362 
-0.000271828      11.9230     -57.5352 
-1.81565e-05      9.66534      82.3889 
7.24821e-05      13.5622     -42.3696 
-1.81747e-05      9.90012     -135.654 
-1.82162e-05      10.2137     -168.249 
0.000144875      13.9210     -46.5136 
-0.000126737      13.8456      135.176 
0.000126598      11.2149     -57.8955 
-1.81592e-05      11.3722      29.2713 
7.24833e-05      9.10689     -29.3256 
-5.43675e-05      9.50413     -68.7816 
7.16689e-05      5.70218     -91.6062 
-7.25889e-05      8.41682      75.2700 
0.000144825      9.53461      63.3261 
-1.81423e-05      9.68523     -160.332 
-9.04340e-05      12.2293      54.0491 
-1.81310e-05      12.3979     -132.778 
0.000108758      13.4498     -49.5821 
5.43856e-05      9.83050     -154.063 
-5.42861e-05      11.0243     -130.365 
-1.81079e-05      7.98016     -37.1544 
0.000163029      10.1316      81.4858 
-7.23714e-05      5.85416     -106.272 
-0.000162751      9.60409     -95.4968 
-5.42956e-05      9.89162      75.1204 
1.81566e-05      3.60971     -29.5440 
-9.06314e-05      12.2020      54.0695 
-1.81435e-05      10.1944     -120.538 
9.04120e-05      6.57794      79.1374 
-1.81267e-05      8.66084     -98.7662 
8.93400e-05      6.08170      128.191 
-0.000144718      13.9022     -135.407 
0.000108606      6.87397      134.292 
-5.43000e-05      11.0169      28.5201 
3.62211e-05      11.0110      26.8916 
-0.000180953      8.46995     -144.323 
-1.81139e-05      4.01388     -7.44388 
5.41960e-05      9.87636     -111.006 
-7.23461e-05      7.18186      168.598 
-1.80820e-05      9.84056      89.3009 
1.81083e-05      11.0262     -28.6092 
-7.24880e-05      11.6900      58.4301 
0.000162874      11.2013      57.2468 
0.000108560      12.3783     -136.376 
-1.81233e-05      8.41714      49.9145 
-9.03644e-05      12.3360      35.3655 
1.80754e-05      13.0837     -133.945 
-0.000144833      9.45269     -68.9191 
0.000126739      11.6056      52.2810 
5.41878e-05      7.04569     -92.2767 
-0.000217248      11.8762      121.924 
-3.61523e-05      9.92498      84.5640 
-7.22864e-05      8.43057      75.4368 
-9.04012e-05      11.3545      29.3212 
-9.04924e-05      9.84112     -179.069 
0.000162916      10.9929      26.9394 
3.61657e-05      13.6542      131.794 
-0.000108535      11.4631     -121.444 
3.62442e-05      10.3746      145.208 
-9.04998e-05      10.2047     -120.636 
1.80799e-05      8.49708     -58.1823 
3.61246e-05      11.0440     -28.5589 
-1.80384e-05      7.49952      103.889 
-9.03734e-05      10.1016      93.7481 
-3.61793e-05      11.5336      124.546 
3.61454e-05      12.3420      48.6135 
3.61614e-05      7.11718     -124.002 
5.42897e-05      12.1783     -54.2239 
5.43682e-05      8.96413      88.3403 
1.80917e-05      10.7262     -117.666 
-0.000108680      4.26671     -86.7738 
0.000110910      6.06920      128.040 
0.000126606      10.3751      168.320 
-1.80721e-05      3.99379     -7.48153 
-0.000126652      9.92308      84.6804 
1.81364e-05      9.81799     -170.382 
-3.61347e-05      11.2727     -152.072 
-1.80628e-05      11.5069      55.1212 
-9.04563e-05      8.65777     -98.6337 
-1.80624e-05      7.57175      55.7634 
-1.80559e-05      3.71492      58.8755 
1.80596e-05      12.6968      130.465 
-3.61248e-05      13.6633      133.932 
-0.000109152      5.32519     -123.511 
3.61599e-05      7.23827      81.5767 
7.24268e-05      10.8901     -119.485 
-3.63102e-05      11.8622     -144.191 
0.000199355      10.2335      101.728 
-3.62117e-05      9.47889     -68.8488 
1.80789e-05      6.61941     -144.966 
-3.61627e-05      5.61275      24.1904 
0.000144980      14.3966     -135.338 
1.80987e-05      10.0680     -77.2637 
-1.80816e-05      7.99572     -37.0699 
-3.61961e-05      13.1571     -139.870 
3.61058e-05      11.8273     -138.222 
-5.42976e-05      10.5223     -65.0414 
1.80555e-05      6.09076     -162.217 
-0.000108651      13.8880     -135.466 
3.62318e-05      13.4999     -40.7940 
3.61759e-05      5.65265     -145.525 
-9.06132e-05      13.2996     -136.706 
-0.000108804      9.58783     -95.7450 
-1.81070e-05      11.6225     -132.420 
-1.80808e-05      8.03897     -70.9765 
-5.42875e-05      10.0526      109.769 
-7.24135e-05      11.2815     -152.208 
1.80580e-05      3.65430     -29.5129 
3.61916e-05      10.7353     -117.758 
-9.06693e-05      11.5447      124.626 
-5.43787e-05      10.0181      18.8706 
1.80818e-05      9.05679      118.489 
-1.80885e-05      9.46047      89.5137 
-3.62265e-05      9.84033      89.4189 
-5.43415e-05      13.6798     -132.036 
-3.62987e-05      3.69759      58.7132 
-3.61695e-05      11.7217      56.9071 
5.43292e-05      10.3869      66.1497 
-7.24753e-05      14.2420     -135.512 
-3.62498e-05      11.7759     -120.179 
3.62330e-05      13.4370     -42.1639 
-1.80462e-05      9.03349     -93.1714 
-5.43823e-05      12.5640     -125.412 
-1.80967e-05      11.2138      129.284 
-3.62484e-05      11.2235     -121.594 
-1.80916e-05      10.0197      126.642 
-1.80713e-05      10.4334      155.055 
-3.62198e-05      12.4603      126.779 
1.81498e-05      4.22406     -48.8390 
1.81316e-05      5.65799      123.467 
-1.81487e-05      11.5181      55.0416 
-1.81116e-05      7.93141     -71.0182 
-1.80939e-05      11.1918      64.7167 
1.81201e-05      10.9141      62.2598 
-1.80758e-05      9.93332      97.8675 
1.81485e-05      12.0228     -128.108 
3.62491e-05      10.9000      119.578 
1.81204e-05      12.8654     -39.8274 
1.81069e-05      8.45587      138.165 
-1.80933e-05      10.3494     -107.316 
-1.81145e-05      4.83633     -31.1299 
1.81679e-05      7.24116      81.4240 
1.81201e-05      11.2424     -57.8661 
-1.81539e-05      11.3375      29.3695 
-1.81390e-05      9.86138     -179.071 
-1.81522e-05      11.6830      58.2965 
1.81782e-05      6.86289     -24.9987 
-1.81908e-05      7.34325     -153.993 
1.82413e-05      3.12965      137.847 
-1.81952e-05      4.04414      53.2449 
1.81196e-05      5.24350     -108.230 
1.81709e-05      7.50217     -150.974 
0.000180219      11.2945     -118.561 
0.000160904      8.40037      86.0406 
0.000145109      11.2767     -118.610 
4.54767e-05      8.39900      86.1784 
0.000237244      11.9123     -53.0529 
6.59479e-05      10.3163     -143.197 
-0.000136565      9.73125     -116.616 
0.000104962      12.6003      143.585 
4.40742e-05      8.50134     -57.8783 
-8.10005e-05      13.8313      134.884 
0.000118149      9.45857      81.7349 
8.07028e-05      11.8386      43.9728 
0.000134984      9.87236      44.1808 
9.86545e-05      11.6262     -129.274 
7.95002e-05      11.4119      148.399 
0.000113636      8.49059     -57.9941 
3.95348e-05      8.72067      86.0528 
0.000147946      10.3320     -143.262 
-2.02108e-05      14.0430      135.056 
9.42937e-05      11.2865     -118.700 
-7.59474e-05      12.1317      141.088 
-9.26520e-05      8.67158     -4.89458 
1.99610e-05      8.21702      151.190 
5.67246e-05      12.1265      46.9383 
-3.91192e-05      11.0740     -144.184 
-5.63095e-05      5.66282      27.5633 
-0.000109313      9.94217      102.665 
7.31362e-05      11.8240      44.0409 
7.50453e-05      7.04644     -74.1862 
5.62831e-05      12.7000      51.6505 
5.59956e-05      10.7785     -54.3636 
9.29070e-05      8.19927      151.122 
1.93319e-05      10.2236      91.4552 
-3.72948e-05      11.2360      60.9272 
-3.75521e-05      10.3456      102.504 
5.48159e-05      8.77789      93.6564 
7.27295e-05      12.5840      143.531 
3.69201e-05      8.01836      84.4201 
-3.67270e-05      7.89225     -40.0671 
-7.21110e-05      11.6408     -37.4594 
-3.69236e-05      8.82770     -53.1028 
-5.38538e-05      11.0904     -144.245 
3.65404e-05      11.3489     -129.637 
-1.85557e-05      8.46821      24.2666 
0.000107548      9.32057      29.1487 
-3.60775e-05      9.36740     -148.890 
3.60539e-05      5.64749     -145.239 
1.83286e-05      11.3953      148.348 
3.61076e-05      9.70845      111.387 
3.62263e-05      12.6991      130.336 
-3.59203e-05      9.18517      138.885 
-1.82216e-05      4.82589     -30.9240 
3.57605e-05      5.78163     -128.259 
-3.53627e-05      11.9706      136.895 
1.81441e-05      9.90978      170.710 
1.80689e-05      10.9448      151.516 
3.54092e-05      9.86857      119.370 
5.35775e-05      8.82584      87.9243 
-1.78917e-05      9.70108     -68.7245 
-5.34301e-05      10.2096     -168.361 
3.54110e-05      7.46742     -150.826 
1.77581e-05      5.92912     -74.7449 
1.77559e-05      6.71404      80.3945 
-1.76091e-05      9.78319      73.4902 
-1.75624e-05      14.3827      134.717 
-1.75535e-05      3.76400     -166.476 
-9.29018e-05      11.2629      60.8853 
-3.62970e-05      10.0690     -74.4464 
-1.83664e-05      7.11668      68.9143 
-1.83305e-05      4.32681     -123.685 
3.57311e-05      9.57724      43.5587 
5.34762e-05      9.68220      111.319 
-3.59236e-05      12.3970      126.074 
1.80136e-05      4.31594     -106.422 
-3.53811e-05      11.1234     -24.7670 
-3.52614e-05      4.08577      3.08469 
-1.78716e-05      9.02031      109.562 
3.51820e-05      12.6710      130.328 
-1.78036e-05      7.75288     -170.198 
-3.50387e-05      8.76437      56.1671 
-1.74946e-05      8.81555     -53.2081 
-1.74411e-05      3.67357      85.0080 
-1.73961e-05      4.33808     -123.907 
-1.73653e-05      7.96955     -70.6557 
1.73089e-05      5.65906     -145.071 
-1.72756e-05      4.79874     -30.8362 
1.72633e-05      11.6139     -129.200 
-1.72327e-05      8.45780      24.4435 
-1.72022e-05      10.5895      160.469 
1.71882e-05      4.41931      104.414 
1.71990e-05      6.51194      150.366 
-1.71787e-05      10.9452      22.1143 
! Tentative model.
! Flux (Jy) Radius (mas)  Theta (deg)  Major FWHM (mas)  Axial ratio   Phi (deg) T \
! Freq (Hz)     SpecIndex
1.86290e-05      11.2770     -118.610 
