! Center RA: 12 21 31.69052,  Dec: +28 13 58.50011 (2000.0)
! Established model.
! Flux (Jy) Radius (mas)  Theta (deg)  Major FWHM (mas)  Axial ratio   Phi (deg) T \
! Freq (Hz)     SpecIndex
  0.117419     0.322315     -119.728 
 0.0569693     0.313099     -116.626 
0.00807287     0.295127     -118.390 
 0.0136200     0.260826     -122.547 
0.00362541     0.271820     -126.016 
0.00272440     0.244605     -125.006 
0.000438831     0.288454     -123.649 
0.000219598     0.145849     -164.176 
0.000215753     0.141777     -171.784 
0.000213773     0.304887     -121.617 
0.000420856     0.140322      180.000 
0.000407757     0.141777      171.784 
0.000404374     0.340058     -118.035 
0.000199313     0.145849      164.176 
0.000774345     0.357396     -116.565 
0.000390159     0.170734      159.414 
0.000748809     0.178866      153.327 
0.000910980     0.375627     -115.183 
0.000710531     0.188432      148.019 
0.00101977     0.394056     -113.929 
0.000342056     0.199903      143.087 
0.000820204     0.228306      142.075 
0.00169429     0.411965     -112.829 
0.000811861     0.240790      138.411 
0.00104235     0.269397      138.048 
0.000582175     0.310934      135.000 
0.00317868     0.430710     -111.783 
0.000425828     0.588377      125.291 
0.000274480     0.604406      124.223 
0.000656226     0.649334      123.690 
0.000852395     0.665655      122.759 
0.000722490     0.212689      138.719 
0.000996716     0.682782      121.839 
0.00137006     0.184676      139.449 
0.000324927     0.449587     -110.825 
0.00164215     0.457182     -113.199 
0.00108515     0.700075      120.964 
0.00131530     0.156126      140.265 
0.00127932     0.716875      120.161 
0.000744673     0.475177     -112.272 
0.000157393     0.141141      135.000 
0.000483839     0.404832     -122.895 
0.000478972     0.432889     -123.690 
7.65401e-05     0.395830      135.000 
0.000150743     0.410407      133.000 
0.000978705     0.421988     -121.401 
0.000220443     0.438496      133.197 
0.000213928     0.453478      131.445 
0.000139123     0.481580      131.589 
0.000466008     0.496341      130.094 
0.000747328     0.449253     -122.310 
0.000190186     0.540492      128.970 
6.22817e-05     0.161670      150.222 
0.000123234     0.584228      128.062 
6.08979e-05     0.126477      161.673 
0.000120598     0.600310      126.870 
0.000287860     0.101837      168.524 
0.000118066     0.616029      125.781 
0.000115675     0.660356      125.099 
0.000327560     0.466502     -120.980 
0.000113301     0.676411      124.148 
5.62895e-05     0.476838     -122.990 
0.000592616      3.20233      115.929 
0.000220270     0.693272      123.208 
0.000420365    0.0802914      180.000 
0.000160095     0.710310      122.313 
0.000257158     0.726874      121.491 
0.000579789     0.493955     -121.710 
0.00106877      3.21091      116.242 
0.000246882     0.744225      120.676 
0.000465736    0.0828082      165.838 
0.000416965     0.761721      119.899 
0.000130467    0.0600310      180.000 
0.000302383     0.778695      119.183 
0.000676121     0.521249     -122.478 
0.000124102    0.0633577      161.350 
4.21581e-05    0.0896014      153.650 
4.18741e-05      3.61543      118.405 
8.18042e-05     0.424483      135.000 
4.16061e-05      3.18412      116.088 
4.15327e-05     0.796445      118.473 
4.13168e-05      3.64223      118.540 
0.000162300     0.814312      117.793 
4.11741e-05      3.15771      115.914 
4.08001e-05      3.66936      118.656 
4.07186e-05      3.13064      115.742 
4.03589e-05      3.13950      116.075 
4.02482e-05      3.69687      118.781 
0.000118677      3.11241      115.904 
0.000118044      3.71398      118.636 
0.000191526    0.0397705      180.000 
0.000117441     0.831621      117.166 
3.93367e-05     0.381773      137.151 
0.000190525      3.08635      115.736 
0.000324518     0.410407      137.000 
0.000114298      3.74148      118.760 
0.000113680     0.849697      116.542 
0.000182888      3.76863      118.872 
0.000252908      3.05931      115.559 
0.000175265     0.867194      115.966 
3.60018e-05    0.0286526     -135.000 
3.58762e-05     0.877265      114.241 
0.000241557      3.79551      118.997 
0.000104098     0.885454      115.392 
6.92889e-05    0.0202604     -90.0000 
0.000332829     0.549255     -123.126 
0.000309186     0.452074      135.000 
0.000137863     0.895778      113.709 
0.000269836      3.04105      115.724 
3.45779e-05    0.0397705     -90.0000 
0.000159686     0.438496      136.803 
9.93512e-05     0.913675      113.217 
0.000287398      3.82306      119.116 
0.000344974      3.01469      115.538 
6.54511e-05    0.0446338     -63.0042 
0.000124389     0.538451     -121.320 
6.43053e-05     0.932329      112.726 
3.17337e-05    0.0720098     -56.4755 
0.000111646     0.940038      113.823 
3.12207e-05     0.951048      112.255 
0.000177687      3.81324      118.850 
3.10240e-05    0.0562440     -45.0000 
5.87321e-05     0.958607      113.334 
0.000148063     0.976552      112.881 
8.91280e-05    0.0848966     -45.0000 
0.000365104      2.99642      115.705 
0.000513664     0.566331     -122.005 
5.88792e-05      1.29695      109.819 
0.000333412      3.84077      118.969 
0.000496136     0.480727      135.000 
8.53261e-05      1.32223      110.358 
2.81406e-05     0.100252     -36.7841 
5.50801e-05      1.34124      110.057 
2.74634e-05     0.113549     -45.0000 
5.33859e-05      1.34833      110.866 
0.000128764     0.128090     -38.8171 
0.000128527      1.36728      110.563 
2.65525e-05      3.02348      115.885 
0.000336932      3.33680      117.481 
2.60330e-05      3.93203      119.559 
0.000102171      2.96972      115.536 
2.58178e-05      3.89486      119.197 
5.08913e-05     0.921540      114.332 
2.55830e-05      3.86730      119.082 
2.53824e-05      3.72215      118.213 
5.00633e-05      2.64782      117.916 
0.000352604      3.36347      117.634 
7.46085e-05      3.95900      119.675 
7.26294e-05     0.903799      114.842 
2.46217e-05      1.38556      110.280 
0.000119091      2.63059      118.115 
9.54469e-05      1.39244      111.033 
4.81971e-05      3.98664      119.784 
6.87562e-05      3.30983      117.344 
0.000246274     0.144435     -33.7726 
0.000354618     0.593248     -122.605 
0.000161765      4.01392      119.882 
4.68459e-05      2.94340      115.343 
0.000614439     0.509380      135.000 
9.06498e-05      1.41137      110.738 
0.000173274      2.61274      118.324 
0.000190973      4.04094      119.993 
6.51073e-05      1.41867      111.503 
2.19240e-05      2.96104      115.182 
0.000123383      1.43754      111.207 
7.98692e-05      2.93478      114.986 
0.000119999     0.858831      114.796 
0.000117077     0.134233     -26.5651 
0.000135881      2.59492      118.536 
0.000155303      4.06862      120.097 
0.000117167     0.604406     -124.223 
3.91926e-05      1.44500      111.956 
0.000257994     0.841160      115.353 
0.000130063      1.46311      111.670 
0.000396342     0.621263     -123.172 
0.000167096      3.39082      117.779 
0.000226645      4.09594      120.191 
0.000187367     0.152624     -23.1616 
8.47379e-05      2.92660      114.640 
0.000122407      2.57780      118.744 
5.26672e-05      1.47043      112.377 
1.77038e-05      2.95248      114.826 
3.41576e-05      1.50907      128.540 
6.61761e-05      1.48196      111.381 
1.67561e-05      1.52438      128.083 
0.000261918     0.495261      136.658 
1.64599e-05      2.56848      118.362 
3.25181e-05      4.08616      119.955 
0.000427717      3.34619      117.789 
6.37037e-05      1.52130      129.114 
0.000121958      2.56005      118.962 
0.000137963      4.12300      120.298 
0.000119483      1.50084      111.099 
3.08504e-05      2.94434      114.481 
8.37087e-05      3.75724      117.926 
0.000101451      1.53416      129.702 
0.000139533     0.832685      114.094 
1.51478e-05     0.126477     -18.3275 
7.11238e-05      2.91821      114.278 
0.000194712     0.145849     -15.8239 
1.47863e-05     0.822896      115.958 
0.000164461     0.632576     -124.708 
0.000111972      4.15072      120.399 
6.84858e-05      2.54235      119.183 
0.000103857      1.51906      110.834 
2.65152e-05      3.44901      130.058 
7.72093e-05      1.54718      130.279 
8.95017e-05     0.814232      114.676 
0.000162224      4.17807      120.489 
2.62228e-05      2.93600      114.122 
1.31844e-05      3.43410      130.267 
5.09258e-05      2.53289      118.797 
7.34065e-05     0.523357      136.510 
4.92240e-05      2.91024      113.928 
0.000490204     0.649334     -123.690 
6.96437e-05      3.46209      130.314 
8.63698e-05      3.77516      117.782 
4.75969e-05      2.52533      119.399 
0.000229502     0.824622      112.808 
0.000119070      1.53801      110.566 
2.32835e-05      3.80254      117.910 
7.93320e-05      1.54459      131.317 
0.000203383     0.509625      138.163 
1.17356e-05      1.53101      109.856 
6.62688e-05      2.90208      113.562 
9.81703e-05      4.20517      120.592 
5.52718e-05      2.51581      119.011 
1.14062e-05      4.19490      120.354 
1.10953e-05     0.121759     -9.57842 
0.000135903     0.141777     -8.21587 
2.06055e-05      3.47523      130.569 
3.11099e-05      2.50605      118.606 
6.95888e-05      1.55804      131.876 
4.99922e-05      4.22263      120.452 
1.02511e-05      3.49064      130.353 
4.77882e-05      2.91998      113.409 
2.89186e-05      2.89404      113.195 
1.96197e-05      4.23293      120.689 
1.98858e-05      2.49811      119.237 
0.000150680      3.31883      117.643 
7.20667e-05      3.50331      130.596 
2.85815e-05      2.48828      118.830 
0.000135508      1.55700      110.304 
6.19531e-05      3.79309      117.640 
6.32308e-05      4.24972      120.554 
7.77449e-05      4.30452      127.827 
1.81380e-05      2.47893      118.435 
6.90243e-05      1.55675      132.929 
4.18168e-05      3.81979      117.773 
0.000152151     0.817257      111.547 
8.81268e-06      2.88641      112.839 
2.58723e-05      2.46935      118.021 
0.000125179     0.524894      139.639 
7.24798e-05      2.91199      113.043 
2.51045e-05      4.26718      120.416 
1.67632e-05     0.120062      0.00000 
8.30328e-06      2.45989      117.605 
0.000121478     0.140322      0.00000 
2.39634e-05      2.45092      117.201 
5.33525e-05      3.51653      130.847 
0.000108599     0.638318     -122.177 
3.15225e-05      4.29453      120.504 
2.34207e-05      1.55599      133.945 
4.38641e-05      4.31697      128.039 
4.89291e-05      3.81039      117.504 
7.68548e-06      4.32163      120.604 
1.52316e-05      2.44172      116.778 
3.62436e-05      1.54147      134.467 
4.31276e-05      4.33909      120.468 
1.47369e-05      2.43266      116.352 
7.20601e-05      3.29184      117.505 
7.16903e-05      3.83772      117.632 
6.02311e-05      2.90440      112.689 
0.000209367      1.57531      110.058 
7.17647e-06      2.42406      115.938 
1.38562e-05      2.73989      127.287 
7.02740e-06      2.40653      116.142 
2.74108e-05     0.828371      109.748 
4.63012e-05      3.54454      130.888 
0.000100853     0.540492      141.030 
6.89426e-06      2.39768      115.707 
3.95573e-05      1.54147      135.533 
6.79517e-06      4.36645      120.553 
1.99805e-05      2.38896      115.269 
3.25908e-05      4.38326      120.424 
7.06846e-05      4.30104      128.206 
6.72715e-05     0.821746      108.418 
6.46971e-06      2.75221      127.623 
2.50494e-05      2.38069      114.845 
3.72435e-05     0.665655     -122.759 
2.44579e-05      4.41099      120.517 
6.14699e-05      2.80512      128.341 
6.22094e-06      1.52787      136.055 
1.80770e-05      1.54252      136.577 
9.75491e-05      3.49753      103.562 
0.000115007      3.55734      131.126 
3.90834e-05     0.141777      8.21587 
6.00105e-06      2.37225      114.400 
2.32258e-05      2.93064      112.888 
6.26468e-05     0.676411     -124.148 
2.31770e-05      4.42846      120.384 
1.17310e-05      2.35382      114.604 
3.38198e-05      1.52866      137.128 
4.35055e-05      2.34545      114.154 
9.33779e-05     0.555796      142.295 
5.22015e-05      3.85569      117.493 
4.28473e-05      4.45554      120.482 
5.50415e-06      2.89665      112.320 
7.16608e-05      2.92311      112.536 
3.09455e-05     0.815792      107.118 
4.63932e-05     0.687989     -125.545 
0.000172727      3.49283      103.239 
3.08975e-05      1.52944      138.182 
0.000135534      4.28853      127.993 
1.49983e-05      2.33754      113.718 
9.67088e-05      4.47302      120.351 
2.39991e-05     0.145849      15.8239 
1.35076e-05      3.26519      117.348 
3.25693e-05      2.81727      128.653 
3.33495e-05     0.699961     -126.894 
1.44908e-05      1.51650      138.731 
4.86675e-06      2.31900      113.919 
5.90663e-05      3.58593      131.157 
4.91274e-05      2.31086      113.460 
9.47179e-06     0.810060      105.749 
1.39648e-05      1.53178      139.231 
3.94743e-05      3.88236      117.625 
8.85087e-05     0.571959      143.536 
3.11376e-05     0.711845     -128.150 
9.04814e-06     0.819935      102.688 
4.53174e-06      1.58211      110.721 
3.05732e-05      1.51863      139.810 
2.98454e-05      4.50036      120.435 
1.73945e-05     0.164706      13.9729 
4.45601e-06      4.85844      109.479 
9.95494e-05      4.83259      109.332 
8.62732e-06     0.812127      99.9497 
3.84566e-05      2.85788      129.043 
1.68526e-05     0.724535     -129.410 
0.000215424      3.57070      131.371 
8.28757e-06     0.806114      97.1118 
0.000195841     0.664933      15.7145 
1.22423e-05      1.53416      140.298 
1.63044e-05     0.735975     -132.769 
3.44446e-05      2.91540      112.168 
2.71321e-05      2.30287      112.998 
2.34984e-05      3.90936      117.741 
7.97073e-06     0.802162      94.2918 
1.96639e-05     0.749880     -133.905 
0.000172561      3.48825      102.915 
1.55474e-05      1.52130      140.886 
1.89534e-05     0.800901      92.8463 
3.65573e-05      3.23790      117.195 
2.62956e-05     0.764069     -135.000 
2.19463e-05     0.588377      144.709 
2.51701e-05      1.53649      141.345 
2.15358e-05      3.93673      117.864 
5.54226e-05     0.800169      91.4509 
4.16668e-05     0.777987     -136.016 
3.62887e-06      2.29532      112.549 
2.37962e-05      2.27731      112.737 
0.000143279      4.82617      109.114 
4.25644e-05     0.576909      146.351 
2.59992e-05      2.90782      111.799 
3.45640e-06     0.809071     -140.004 
1.02772e-05      1.13830     -161.553 
4.32820e-05      1.54038      142.382 
3.39236e-06      3.96346      117.991 
2.94346e-05      1.15753     -161.870 
2.80348e-05      3.95399      117.732 
1.50952e-05      2.89872      129.401 
1.56414e-05     0.480675     -92.4157 
6.80967e-05      2.26956      112.266 
6.94521e-05     0.792690     -137.033 
2.15823e-05      1.17680     -162.177 
4.30558e-05      4.27655      127.787 
1.75567e-05      2.87439      111.213 
4.62136e-05      4.49051      120.220 
5.83195e-05     0.799913      90.0000 
2.04859e-05      1.19539     -162.464 
1.90202e-05     0.604406      145.777 
1.68155e-05     0.593248      147.395 
3.45431e-05      3.20181      116.727 
1.86185e-05     0.480248     -90.0000 
8.00851e-06      1.56848      109.362 
1.90470e-05      3.98136      117.855 
2.48857e-05      1.21473     -162.752 
3.84995e-05      1.54372      143.420 
4.47176e-05      2.69059     -168.856 
6.38710e-05     0.670704      17.3808 
1.02717e-05      2.86712      110.835 
2.60770e-05      1.23409     -163.030 
3.49890e-05      3.50800      102.841 
1.49909e-05      4.26115      127.948 
1.24122e-05      3.97194      117.596 
2.47622e-05      4.81957      108.886 
1.73114e-05     0.621263      146.828 
2.70085e-05      1.25276     -163.291 
3.18394e-05      2.69458     -168.433 
1.70225e-05      2.88026      89.2088 
2.45723e-06      2.93968      129.749 
4.83077e-06     0.800169      88.5491 
7.22531e-06      3.21098      117.050 
4.80693e-06     0.807634     -138.013 
0.000226443      13.5649      46.1341 
3.55918e-05      13.5795      46.1933 
0.000374517      9.99436     -11.8938 
0.000334626      9.28095      79.3206 
-0.000255109      11.7386      39.3319 
-0.000247702      6.19950      137.355 
-9.38184e-05      12.8096     -50.8915 
0.000206040      6.86546      164.630 
-3.15350e-05      9.93336      49.7339 
-0.000177379      6.64607     -87.5863 
-3.12993e-05      11.3667     -29.6299 
-0.000237748      10.8620     -34.4190 
-0.000390201      9.94883      49.8093 
-0.000214595      11.3740     -29.4959 
-0.000193571      9.76238      86.1215 
0.000328565      9.12328      153.715 
-0.000161792      2.14047      178.935 
-0.000310465      12.7944     -50.8364 
-5.88606e-05      3.98867      68.8371 
-0.000160928      8.15886      108.878 
0.000136001      7.37918     -15.2403 
-0.000105843      11.7258      39.2554 
-0.000131260      10.7521     -67.5838 
0.000161264      9.87308     -18.5465 
8.18632e-05      5.71682     -142.252 
-0.000107109      4.01490      68.6719 
-0.000271755      4.14144      26.6904 
-0.000309920      9.54648      154.829 
8.10450e-05      12.5335     -48.0383 
-7.91248e-05      8.05019      43.2890 
-0.000104454      10.3489      26.2696 
-7.75100e-05      11.2831     -56.0563 
0.000128177      11.8321     -128.343 
-0.000201419      5.15672      35.8527 
9.93835e-05      6.41340      132.344 
-5.15534e-05      9.02146      93.9396 
-0.000124790      6.21442      137.481 
-7.45736e-05      4.51985     -172.368 
0.000125103      10.7454     -18.3325 
-0.000272912      9.05296      76.9751 
0.000200611      2.29418     -165.355 
5.26877e-05      7.91742     -106.281 
2.66816e-05      6.97330      7.08372 
2.65300e-05      9.05427      21.9178 
-0.000123835      9.80424     -62.5446 
2.61422e-05      9.17456     -33.6225 
0.000149506      12.5054     -136.427 
0.000122653      9.99855     -12.0074 
0.000169348      10.1760     -111.927 
0.000217696      9.26105      79.2974 
-4.98326e-05      6.66474     -87.7674 
-0.000145582      2.32204      82.0872 
-9.71752e-05      5.08187     -67.0658 
-0.000144285      11.4224      54.3354 
2.54707e-05      6.65720      155.131 
-0.000167714      10.2979     -17.5187 
2.53612e-05      9.06185      22.0366 
2.53147e-05      1.35892      32.9881 
4.81810e-05      9.98376     -138.004 
9.62364e-05      5.70081     -142.127 
9.74136e-05      9.18025     -33.4472 
9.50865e-05      9.63940      31.9406 
9.55875e-05      7.45878      42.7169 
2.48021e-05      9.67433      51.9683 
-2.47130e-05      9.20679      2.24208 
7.05032e-05      7.36573     -15.4323 
2.46261e-05      2.71938     -18.4349 
7.21003e-05      9.86665     -18.4349 
9.40383e-05      5.50381     -70.2458 
7.12297e-05      8.47085     -107.024 
-2.43699e-05      8.28954     -39.0259 
4.68472e-05      6.97582      7.24886 
0.000140919      9.70172      51.9486 
-6.98225e-05      7.27289      126.052 
6.95086e-05      9.11432      153.829 
-2.37063e-05     0.987333     -83.0154 
9.26519e-05      4.85943      7.32804 
4.66077e-05      11.8196     -128.266 
2.35734e-05      7.91198     -106.145 
9.20360e-05      12.5335     -136.422 
6.90050e-05      2.73231     -17.8975 
-4.58340e-05      10.3575      26.3664 
-4.60155e-05      8.03600      43.3844 
-2.31951e-05      6.78161      169.119 
-2.30391e-05      8.28719     -39.2197 
-6.80153e-05      9.55479      154.723 
2.29908e-05      9.16951     -33.3454 
2.29358e-05      5.46742     -148.463 
2.28126e-05      9.88516     -18.3992 
-2.27191e-05      5.14488      35.6698 
2.26586e-05      9.99551      155.282 
2.23576e-05      8.45220     -107.063 
0.000121313      12.6017     -131.074 
-0.000163186      5.05878     -67.6920 
-0.000104800      9.99738      24.4625 
3.40645e-05      9.67440     -33.3622 
-6.48501e-05      11.4279     -130.884 
-3.29099e-05      2.38809     -143.523 
3.18402e-05      10.3591     -131.320 
7.41531e-05      9.69071     -33.2988 
-8.35978e-05      9.61534      107.302 
-5.47925e-05      2.40380     -143.799 
1.51113e-05      7.42506     -37.8902 
-1.50135e-05      11.3515      115.796 
5.52843e-05      8.96203      108.072 
1.48105e-05      8.27327     -66.0365 
1.46840e-05      10.3725     -131.404 
-4.12181e-05      11.4412     -130.960 
-1.44719e-05      7.20021     -90.4777 
-2.79670e-05      8.98454      121.990 
-6.43610e-05      10.4620      19.1952 
-7.64296e-05      7.10297      51.5198 
1.40574e-05      8.29110     -66.0912 
2.28779e-05      10.4011     -131.414 
1.38275e-05      7.39371     -38.0795 
1.37614e-05      2.42902     -30.1532 
8.78101e-05      12.5851      41.2627 
7.36449e-05      8.29903     -65.9681 
-2.49048e-05      11.3603      115.888 
-1.32380e-05      7.20007     -90.3165 
-7.08817e-05      10.3101     -135.548 
1.31546e-05      6.00391     -143.395 
1.31005e-05      10.4286     -131.424 
6.08265e-05      5.66783      67.5943 
3.60428e-05      2.41152     -30.3950 
6.06754e-05      10.7492     -131.907 
-5.79952e-05      9.83062      133.930 
1.25681e-05      6.02019     -143.510 
-5.83772e-05      13.2018      136.905 
2.44064e-05      5.81967     -34.7802 
3.57429e-05      8.95577      107.949 
1.22683e-05      9.70765     -33.2331 
6.76113e-05      7.39519     -15.6890 
-1.21641e-05      8.99529      122.099 
-1.20117e-05      11.3332      115.841 
2.33677e-05      11.7254     -32.0373 
1.19673e-05      6.03649     -143.624 
-7.33059e-05      10.0638     -102.628 
4.43084e-05      8.68669      129.114 
3.25151e-05      6.02449     -143.780 
3.32539e-05      5.79190     -34.7360 
4.38083e-05      10.7362     -131.830 
-2.17132e-05      10.0158      24.4145 
-6.88825e-05      1.03223     -81.0923 
1.11539e-05      9.12460      171.301 
2.10909e-05      6.00816     -143.665 
-1.11378e-05      4.96643      128.621 
-2.09151e-05      2.39233     -144.176 
6.15603e-05      5.66014      67.7839 
2.14990e-05      8.96883      107.786 
0.000109250      12.5833      41.3929 
-9.70582e-05      10.4687      19.2999 
-1.08962e-05      11.4259     -131.027 
1.08627e-05      6.08045      89.0595 
-2.10379e-05      8.92945      85.3727 
2.03968e-05      11.7533     -32.0686 
-3.80819e-05      7.78057      75.7118 
-5.60418e-05      7.09084      51.6432 
2.99420e-05      8.30730     -65.8405 
2.06466e-05      8.11218      148.820 
-1.04158e-05      9.60955      107.191 
-2.04945e-05      7.33847     -94.0635 
3.01615e-05      5.80856     -34.6221 
-1.03564e-05      10.3246     -135.627 
8.78019e-05      10.7227     -131.749 
0.000130679      11.1804      153.664 
1.03077e-05      7.82554      92.1982 
-2.02852e-05      13.2161      136.963 
2.96642e-05      10.1287      83.3078 
3.41950e-05      11.7425     -31.9848 
3.82846e-05      8.56711      79.3702 
1.01552e-05      6.14053      94.6683 
5.48432e-05      8.67392      129.010 
1.01338e-05      10.4438     -131.350 
0.000140458      7.80605      92.2037 
5.59761e-05      7.42019     -15.7974 
1.91562e-05      10.2019     -71.9569 
1.93090e-05      6.10019      89.4362 
1.91558e-05      12.0316      47.4239 
5.46368e-05      6.12202      94.8727 
-4.40482e-05      10.2959     -135.629 
-9.70901e-06      11.5973     -49.0561 
-2.84535e-05      6.80296     -88.3123 
1.88070e-05      8.09485      148.746 
1.86515e-05      7.89697     -104.073 
-3.68545e-05      13.2309      137.022 
-9.56075e-06      8.19278      165.726 
-9.52014e-06      8.40222      91.3664 
-2.75586e-05      10.0680     -102.736 
9.47059e-06      5.99185     -143.551 
-7.57057e-05      10.4694      35.9048 
9.35558e-06      10.4157     -131.343 
-9.33786e-06      8.92783      85.5023 
-9.30541e-06      14.0877      136.036 
-9.26541e-06      8.79280     -57.0694 
-6.66855e-05      10.4496      19.3366 
1.82189e-05      10.7643     -131.835 
9.11852e-06      5.95991     -143.323 
-9.13483e-06      8.39895      62.9450 
2.46642e-05      5.64139      67.7061 
-6.78736e-05      6.80356     -88.1481 
-1.80281e-05      14.1023      136.093 
1.77374e-05      12.5777     -130.807 
9.02821e-06      10.1093      83.2949 
-1.74808e-05      9.80197      133.927 
5.48421e-05      8.01102      84.9863 
3.41844e-05      11.9649      45.6759 
-8.82465e-06      8.40271      91.4994 
1.70963e-05      8.11042      28.9032 
8.25390e-05      10.7779     -131.915 
2.55629e-05      9.99783     -66.6676 
8.74237e-06      5.94367     -143.207 
-5.63862e-05      8.38158      62.8844 
-8.63736e-05      8.80981     -57.1410 
-1.72482e-05      14.1304      136.089 
-4.47370e-05      10.0440     -102.653 
3.23646e-05      8.58332      79.5280 
-8.62884e-06      11.3998     -130.876 
3.33279e-05      8.63742      110.324 
8.58183e-06      8.33409     -65.7704 
8.58997e-06      10.6061     -121.742 
0.000115783      7.40070     -15.8401 
8.52544e-06      8.96121     -47.6234 
-3.26459e-05      10.0483     -102.762 
8.50592e-06      5.65251      67.9740 
-3.11772e-05      9.79783      55.1403 
8.49317e-06      5.93201     -143.358 
0.000109793      3.23949      39.4827 
8.44186e-06      10.1210     -119.604 
-8.38869e-06      2.38053     -144.571 
2.39443e-05      4.54256     -7.84232 
-8.39335e-06      13.2457      137.082 
-1.65912e-05      14.1737      136.143 
9.56836e-05      3.22388      39.7117 
-3.76681e-05      1.02938     -82.1652 
1.60306e-05      12.5649     -130.740 
-8.26680e-06      8.42296      91.4958 
8.25007e-06      7.89207     -103.931 
-3.00756e-05      9.57917      159.977 
-8.20264e-06      9.49289      46.4509 
3.16517e-05      5.91636     -143.245 
1.59315e-05      6.12378      95.0616 
8.09359e-06      10.1114     -119.508 
5.97503e-05      10.0059     -66.5611 
-5.49703e-05      7.07829      51.7718 
-8.03489e-06      13.2324      137.144 
-1.57507e-05      14.1877      136.198 
-0.000161626      13.9265      132.788 
-1.57868e-05      8.74058      90.7870 
7.91364e-06      11.9791      45.6066 
-2.18779e-05      9.77386      133.921 
7.88000e-06      8.97488     -47.5278 
1.54110e-05      10.1640      120.247 
3.73673e-05      8.61210      110.243 
-7.76640e-05      6.78400     -87.9716 
-1.52431e-05      9.47894      46.5397 
-7.75535e-06      11.3866     -130.799 
1.50693e-05      10.1014     -119.408 
2.14718e-05      8.95994     -47.4403 
-7.67812e-06      10.2818     -135.710 
-5.81797e-05      8.76084      90.7852 
3.15908e-05      10.8189     -132.003 
-4.27532e-05      14.2012      136.141 
7.59740e-06      11.9794      45.7436 
0.000149256      10.8325     -132.083 
3.38711e-05      7.87241     -103.966 
2.92863e-05      5.90014     -143.127 
-2.80905e-05      9.59751      160.017 
1.42358e-05      12.0448      47.3556 
3.43054e-05      6.10359      95.0784 
-2.74240e-05      10.4852      35.8423 
-1.45183e-05      2.22408     -176.383 
-7.37360e-06      11.3718     -130.863 
-8.75223e-05      8.36355      62.8211 
7.29823e-06      4.52249     -7.87734 
2.10700e-05      8.60250      79.5517 
3.41725e-05      11.9935      45.6743 
-2.08272e-05      9.73286     -143.863 
1.42644e-05      5.63373      67.8967 
-1.39553e-05      11.3586     -130.786 
1.38512e-05      10.1707      120.093 
7.15434e-06      12.0121     -58.4795 
-1.38423e-05      9.46502      46.6287 
4.59386e-05      5.88395     -143.009 
-2.08790e-05      6.04012     -118.259 
7.00238e-06      12.5665     -130.612 
-4.69947e-05      11.3979     -121.290 
2.65965e-05      12.5985      41.3320 
-2.01463e-05      9.78626      55.2376 
-6.91004e-06      11.5816      128.690 
-6.93146e-06      13.2765      137.320 
3.97963e-05      12.0016     -58.5619 
8.30909e-05      7.38193     -15.8814 
1.30977e-05      8.13553      28.6429 
-5.19039e-05      10.4754      19.4045 
1.33314e-05      10.8461     -132.162 
-4.48856e-05      10.1073      92.1529 
6.78528e-06      8.60537      110.121 
-6.79032e-06      2.20341     -176.876 
6.74993e-06      4.50316     -7.91137 
6.74951e-06      10.0915     -119.308 
-5.83242e-05      8.78110      90.7834 
-6.75776e-06      5.08028     -179.551 
-6.72268e-06      10.2678     -135.634 
6.68438e-06      10.9038     -37.2476 
-3.18430e-05      6.04974     -118.428 
1.93430e-05      5.62394      142.803 
-6.67372e-06      2.39707     -144.852 
1.30703e-05      11.7318     -31.9009 
-2.57146e-05      6.91558     -121.760 
-6.59988e-06      11.5694      128.615 
6.81121e-05      7.74759     -83.6273 
2.57292e-05      9.68844      32.1785 
-1.29890e-05      8.73214     -143.291 
-6.52527e-06      10.0396     -102.540 
-1.26871e-05      11.3458     -130.711 
-1.88621e-05      2.22289     -176.904 
1.25274e-05      5.62334      67.6307 
-6.42974e-06      9.45163      46.7147 
-1.22636e-05      8.92480      85.7568 
1.24582e-05      7.99263      84.8289 
-1.21933e-05      5.45836     -167.083 
-6.09840e-05      8.71590     -143.211 
-1.25981e-05      6.58952      168.625 
-5.53132e-05      11.4152     -121.238 
6.39013e-06      11.1053     -133.467 
6.32196e-06      8.59842      109.994 
5.48325e-05      11.9914     -58.6415 
-2.44356e-05      9.78183      55.0750 
4.24186e-05      11.2075      153.617 
-6.29903e-06      10.0353     -102.432 
1.84027e-05      12.0072      45.6077 
2.43737e-05      5.45578      171.784 
6.23799e-06      11.1192     -133.543 
1.21078e-05      7.80529      92.0550 
-5.40874e-05      8.34553      62.7576 
3.02543e-05      9.67806      32.0807 
1.79953e-05      11.7490     -31.8487 
-3.01203e-05      8.80061      90.7817 
-2.40666e-05      6.92587     -121.897 
-3.59854e-05      10.4938      19.3691 
1.21655e-05      11.1332     -133.618 
1.20155e-05      7.85347     -104.000 
1.79772e-05      5.87178     -143.167 
-6.05962e-06      10.0310     -102.319 
6.04168e-06      5.60841      142.682 
-1.19294e-05      6.60939      168.659 
1.77912e-05      10.8118      58.3099 
5.98568e-06      8.57246      109.913 
-1.18301e-05      10.0871      92.1572 
5.93966e-06      12.7519     -143.417 
-1.18080e-05      9.61731      66.2050 
-1.18603e-05      13.2091     -42.3615 
-5.92457e-06      10.0267     -102.206 
-5.89952e-06      9.55321      160.049 
5.90781e-06      11.1320     -133.763 
-1.75531e-05      11.4257     -121.325 
-5.85305e-06      9.30045      47.5276 
-5.85348e-06      8.80035      90.6498 
-5.85625e-06      6.93660     -122.040 
-5.84353e-06      1.04946     -82.3160 
5.81996e-06      7.38750     -16.0325 
5.83092e-06      12.5757      49.9038 
-5.87393e-06      11.3432     -130.853 
-5.83298e-06      6.05941     -118.596 
-5.80387e-06      10.0069     -102.230 
-5.81794e-06      2.24312     -176.932 
! Tentative model.
! Flux (Jy) Radius (mas)  Theta (deg)  Major FWHM (mas)  Axial ratio   Phi (deg) T \
! Freq (Hz)     SpecIndex
7.12216e-06      9.69474      32.0179 
