! Center RA: 12 21 31.69052,  Dec: +28 13 58.50011 (2000.0)
! Established model.
! Flux (Jy) Radius (mas)  Theta (deg)  Major FWHM (mas)  Axial ratio   Phi (deg) T \
! Freq (Hz)     SpecIndex
  0.133655      0.00000      0.00000 
 0.0690342    0.0202604      90.0000 
0.00121713    0.0600310      90.0000 
0.00490970    0.0828082      75.8378 
 0.0275806    0.0202604     -90.0000 
 0.0242057     0.101837      78.5245 
 0.0331254     0.259634      90.0000 
0.00427731     0.107434      68.2729 
0.00592855     0.126477      71.6725 
0.00186353     0.260423      85.5380 
0.00173396    0.0202604      0.00000 
 0.0165325    0.0286526     -45.0000 
 0.0201713     0.121759      80.4216 
0.00260973     0.280627      94.1402 
0.00397881    0.0446338     -63.0042 
0.00254816     0.279894      90.0000 
0.00217421     0.220795      84.7351 
0.000338139     0.201375      84.2257 
0.00573986     0.140322      90.0000 
0.00176482     0.240977      85.1771 
0.00344473     0.120062      90.0000 
0.00184321     0.300838      93.8616 
0.000942185    0.0286526      135.000 
0.00419299    0.0202604      180.000 
0.00246679     0.322129      97.0919 
0.00190900     0.243395      80.5958 
0.00191009     0.345185      100.015 
0.00106836     0.141777      98.2159 
0.00112103     0.121759      99.5784 
0.00338331     0.365154      99.4623 
0.000214811     0.116465      148.973 
0.000781823     0.134233      153.435 
0.000776639     0.100252      53.2159 
0.00153495    0.0720098     -56.4755 
0.000385429     0.200353      90.0000 
0.00131988     0.161111      97.2243 
0.000375057     0.247514      75.9638 
0.000368804     0.100252      36.7841 
0.00102281     0.152624      156.838 
0.00176845     0.181229      96.4188 
0.000525850     0.253192      71.5114 
0.00135683    0.0633577     -71.3505 
0.00248883     0.116465      31.0271 
0.00249679     0.384412      98.9843 
0.000598801     0.260038      67.4310 
0.00367386    0.0896014     -63.6495 
0.000754014     0.268467      63.4349 
0.00211181     0.170734      159.414 
0.00179428     0.184432      102.453 
0.000149440     0.164706      103.973 
0.000147308     0.201375      95.7743 
0.00133563     0.278118      59.6991 
0.00268914     0.404436      98.5360 
0.000622143     0.204262      101.227 
0.00197043     0.134233      26.5651 
0.000574645     0.304887      58.3833 
0.00150036    0.0828082     -75.8378 
0.000669645     0.422095      95.4065 
0.000117730     0.223431      100.253 
0.000550052     0.121759     -170.422 
0.000333788     0.501338      94.5500 
0.000431962     0.266484      103.019 
0.00102135     0.170734      110.586 
0.000820307     0.521537      94.3734 
0.000948594     0.430710      68.2171 
0.00166808     0.178866      153.327 
0.00238671     0.145849      15.8239 
0.00128123     0.288454      56.3513 
0.00128150     0.141777     -171.784 
0.000457482     0.291183      106.006 
0.00150933     0.541740      94.2100 
0.000267221     0.271765      107.184 
0.00215409     0.438632      65.7588 
0.000967529     0.161670      119.778 
0.000645609     0.407936      101.351 
0.000464529     0.297155      109.625 
0.00128641     0.300155      53.1301 
0.000574422     0.278155      111.026 
0.00120446     0.561200      94.0638 
0.00116427     0.116465     -58.9729 
0.000269144     0.161111     -172.776 
0.000892038     0.427819      100.817 
0.000743009     0.145849     -164.176 
0.000605266     0.188432      148.019 
0.000212414     0.854373      110.568 
0.000264117     0.866617      108.843 
0.000209538     0.581411      93.9223 
5.17054e-05     0.286050      114.817 
0.000157073     0.322129      82.9081 
0.000592978     0.342244      83.3269 
0.000418973     0.159832      90.0000 
0.000207477     0.360755      86.7805 
3.68745e-05     0.302778      82.4523 
0.000133913     0.282706      81.9129 
0.000386557     0.379696      90.0000 
0.000193846     0.141777      81.7841 
0.000127380     0.234065      110.062 
6.43506e-05     0.286260      77.8948 
6.32532e-05     0.262662      81.2912 
6.16123e-05     0.266484      76.9812 
0.000842811     0.641314      93.5554 
0.000293487     0.400469      92.8999 
6.06498e-05     0.241454      114.414 
5.99193e-05     0.271765      72.8159 
0.00176605    0.0848966     -135.000 
0.000108293     0.233573      120.932 
0.000110669     0.399956      90.0000 
5.54335e-05     0.152624      113.162 
0.000102515     0.172194      125.422 
0.000479326     0.791300      106.132 
5.08271e-05     0.400469      87.1001 
0.000403336     0.642889      95.3579 
0.000233876     0.184676      130.551 
9.58995e-05     0.401929      84.3213 
9.21870e-05     0.244605      125.006 
0.000135197     0.116465      58.9729 
4.63211e-05     0.404436      81.4640 
4.59529e-05     0.250509      61.3621 
0.000176003     0.407936      78.6487 
0.000211664    0.0720098     -123.524 
0.000172892     0.260826      57.4530 
0.000453037     0.797167      107.531 
4.36094e-05     0.169793      135.000 
0.000166724     0.621094      93.6713 
0.000272459     0.184676      139.449 
0.000160415     0.113549      45.0000 
0.000456295     0.815792      107.118 
0.000122603     0.412220      75.9891 
0.000116604     0.256296      128.581 
0.000302239     0.271820      53.9843 
0.000152840     0.622720      95.5320 
3.94101e-05     0.810060      105.749 
3.91173e-05     0.446997      100.348 
0.000149222     0.417588      73.2909 
0.000655802     0.941538      102.286 
3.74683e-05     0.271820      126.016 
0.000135060     0.423858      70.6669 
0.000345796     0.284207      129.321 
9.60421e-05     0.475398      104.628 
0.000128601     0.645096      97.1498 
6.65956e-05     0.199903      143.087 
0.000832382    0.0896014     -116.350 
0.000397255     0.284207      50.6787 
0.000126206     0.803259      108.858 
4.14849e-05     0.126477      18.3275 
0.000370759     0.961344      102.029 
8.90284e-05     0.791053      110.721 
0.000809845     0.829578      105.369 
0.000188109     0.780402      112.620 
2.77004e-05     0.205897      151.006 
2.70825e-05     0.325575      47.5220 
7.61522e-05     0.480914      106.965 
0.000295915     0.197181      155.971 
0.000308240     0.297458      47.6583 
0.000545353     0.984607      102.903 
0.000205230     0.788112      113.929 
9.45211e-05     0.161111      7.22432 
0.000136798     0.447333      63.3920 
0.000763627     0.849131      105.006 
2.38013e-05     0.411820      50.9163 
0.000111346     0.312731      129.841 
2.22189e-05     0.424884      48.7950 
0.000305278     0.181229      6.41879 
2.20368e-05     0.256296      51.4188 
0.000151444     0.769637      114.541 
0.000111516     0.512905      110.556 
0.000148605     0.410407      47.0005 
2.08298e-05     0.228306      52.0755 
0.000116112     0.465536      64.5089 
0.000293775     0.325575      132.478 
5.95363e-05     0.100252     -126.784 
0.000109370     0.269397      48.0484 
0.000182874      1.00899      103.768 
0.000135810     0.310934      45.0000 
7.47691e-05     0.101837     -101.476 
0.000107614     0.796545      115.261 
0.000258250     0.215843      158.162 
3.29913e-05     0.116465     -148.973 
8.33026e-05     0.209153      163.320 
0.000179401     0.491629      63.4349 
0.000132118     0.121759     -80.4216 
0.000408550      1.25286      114.523 
3.74397e-05     0.134233     -153.435 
0.000659351      1.00437      102.645 
9.57964e-05     0.536933      63.4349 
9.17363e-05     0.200353      0.00000 
0.000258463     0.424483      45.0000 
0.000341048     0.778270      115.898 
0.000181165     0.520365      112.645 
1.56140e-05     0.164706     -166.027 
4.40761e-05     0.152624     -156.838 
0.000315641     0.145849     -74.1761 
0.000125484     0.563176      62.5472 
0.000423561     0.219863      0.00000 
0.000122806     0.283342      45.0000 
1.40256e-05     0.545937      61.6032 
5.27989e-05     0.170734     -159.414 
0.000205257     0.572799      60.7486 
0.000430252     0.339586      135.000 
5.81154e-05     0.189835     -161.565 
0.000764129      1.27974      114.972 
6.93200e-05     0.209153     -163.320 
8.08901e-05     0.325575      42.4780 
9.67593e-05     0.528183      114.599 
0.000189058     0.438496      43.1971 
0.000203492     0.787330      117.224 
0.000128757     0.297458      42.3417 
9.47768e-05      1.02868      103.499 
0.000367501     0.638318      32.1767 
7.26963e-05     0.227911     -164.728 
4.18101e-05     0.582967      59.0109 
0.000280881     0.170734     -69.4145 
7.72338e-06     0.600426      60.0064 
6.78261e-05     0.610413      58.4202 
9.31123e-05     0.554452      115.663 
2.71299e-05     0.247514     -165.964 
0.000241962     0.240977     -4.82291 
1.24698e-05     0.665204      96.9326 
7.01590e-05     0.260423     -4.46202 
8.66607e-05     0.271765     -162.816 
7.42855e-05     0.796445      118.473 
3.26586e-05     0.621263      56.8282 
1.14031e-05     0.854601      106.319 
-0.000408593     0.377263     -32.0779 
9.74949e-06     0.687137      98.3513 
5.08797e-06     0.340220      40.2586 
0.000120546     0.312731      39.8408 
9.72644e-05     0.563176      117.453 
2.27946e-05     0.632576      55.2920 
0.000227596     0.178866     -63.3275 
0.000106964     0.806301      119.738 
3.67496e-05     0.643885      53.8646 
0.000179413     0.835176      106.709 
-0.000321663     0.366905     -29.3961 
9.05207e-05     0.327950      37.6565 
1.94832e-05     0.291183     -163.994 
6.06870e-05     0.100252     -143.216 
-0.000347711     0.591236      23.9625 
2.53046e-05     0.483220      65.5045 
-0.000233872      1.20887      106.331 
6.51754e-05      1.02414      102.397 
5.40430e-05     0.656037      52.4354 
0.000102488     0.220795     -5.26495 
-0.000108720     0.538237      132.005 
6.75299e-05     0.188432     -58.0188 
7.08555e-05     0.453478      41.4446 
7.11245e-05      1.02013      101.326 
4.34263e-05     0.344213      35.5958 
-7.52576e-05     0.523357      133.490 
2.93836e-05      1.27132      114.144 
2.20239e-05     0.205897     -61.0062 
-8.12524e-05     0.402700      153.435 
-5.47741e-05     0.821137      87.2239 
3.56152e-05     0.189835      161.565 
2.10311e-05     0.572799      119.251 
1.16512e-05     0.367178      135.000 
4.66776e-06     0.216445     -56.3099 
6.97081e-06     0.668581      51.0590 
-4.62243e-06      1.24505      119.856 
-2.31407e-06     0.402700     -153.435 
-0.000938933      6.60197      82.1674 
-0.000314052      9.13532      24.9947 
0.00119055      12.6888     -49.8599 
0.000603880      11.9407     -46.6271 
-0.000644887      9.96190      91.1524 
-0.000522855      8.71163      45.3699 
-0.000588762      9.10908      24.9311 
0.000545434      10.6196      72.3499 
-0.000165188      6.16627      165.150 
0.000411593      8.43091      169.891 
0.000442922      5.50997     -116.750 
-0.000530242      12.7056     -48.2535 
0.000490128      8.71357      100.048 
0.000156920      6.47741     -99.9599 
0.000387968      12.2874     -49.6219 
0.000522137      12.9455      142.279 
0.000104808      9.41999      53.3757 
0.000281959      1.62783      42.5153 
-0.000330152      5.04622      77.1727 
0.000423157      10.4932      162.358 
-0.000152802      11.1080     -114.352 
0.000465829      13.2428      48.1214 
-0.000329111      6.17130      164.975 
0.000282789      10.6206     -44.9256 
-0.000238748      7.99450      65.9370 
5.11499e-05      1.59976      42.4527 
-0.000148367      6.97668      62.7018 
-0.000186266      12.0688      50.1078 
-0.000194451      4.35635     -62.9627 
-0.000321736      12.6057     -40.8192 
0.000185014      9.43210      53.2769 
-0.000372128      7.65197     -65.4430 
-0.000270391      13.5203      135.481 
-0.000403344      11.0997     -114.257 
0.000273424      11.1541      137.470 
0.000447109      10.1023      70.4547 
4.79893e-05      9.90417      127.288 
-0.000312612      3.52494     -96.8466 
-0.000312614      10.1513      175.480 
0.000182167      9.89092      131.395 
0.000220425      8.45085      169.915 
9.31949e-05      9.96489     -53.9818 
-0.000266343      11.4322     -59.3968 
0.000303423      10.5768      32.0946 
4.71544e-05      6.61941     -54.9659 
0.000176853      4.40232      109.093 
4.68048e-05      10.2840     -121.806 
-0.000179820      6.95934      62.6282 
9.06094e-05      8.73002      99.8939 
0.000177405      9.92030      127.217 
-0.000131472      6.62130      82.1904 
0.000422593      6.60780     -55.1098 
-0.000174822      10.9477     -129.069 
0.000132055      7.58821      177.279 
-4.55665e-05      11.5558      59.5301 
-0.000174070      4.33832     -62.8410 
8.76819e-05      9.98128     -54.0502 
-8.61211e-05      8.64401     -36.8162 
-0.000128351      3.05129     -57.0447 
8.54996e-05      11.1397      137.402 
-8.62775e-05      7.17437      162.977 
0.000127764      7.17470      66.5103 
8.52248e-05      5.50088     -116.562 
-8.46625e-05      8.69741      45.4649 
-8.37200e-05      8.67940     -167.086 
8.37702e-05      7.10590     -80.1129 
-4.25229e-05      3.70776      140.469 
-0.000125057      7.63423     -65.3822 
-8.30543e-05      7.78128      91.0333 
-8.32671e-05      5.57932      173.203 
-4.22372e-05      3.76952      68.1944 
-8.29547e-05      6.96868      62.4802 
-4.20442e-05      9.74913      26.3027 
4.19934e-05      13.4282     -43.1296 
-4.18640e-05      5.01985     -123.631 
4.17686e-05      11.8923     -49.7732 
4.16722e-05      9.99319     -53.9562 
4.13819e-05      6.72400      124.823 
-4.12106e-05      7.10722     -149.753 
-4.11582e-05      10.2204      142.794 
4.11016e-05      8.73335      141.135 
-4.11237e-05      10.6921      141.608 
4.09103e-05      7.33522     -68.4032 
4.09561e-05      9.27048     -150.391 
-0.000266209      9.26833     -30.3289 
-0.000489508      7.32469      36.3381 
-0.000278421      5.99101      7.47751 
-0.000240807      10.5201      50.8621 
0.000200236      11.6644      37.1250 
-8.63129e-05      8.67588     -36.6588 
0.000335322      9.60491      75.5317 
0.000219275      4.70219      48.0984 
-0.000148152      9.04919     -36.0099 
0.000317469      10.3269     -29.5920 
0.000225532      9.62138     -105.308 
-0.000460402      8.12425     -128.704 
0.000118713      5.02664      156.799 
0.000342989      9.26114     -141.226 
0.000302718      11.6762      37.2013 
0.000117100      4.35875     -82.3526 
0.000233823      13.3665     -136.030 
0.000152538      9.24410      58.7164 
-0.000187040      12.0083      132.029 
-0.000105849      10.5324      50.7798 
-0.000355981      12.9088     -52.4893 
-0.000109804      8.58490     -160.255 
-3.85154e-05      8.87083     -34.6243 
7.17540e-05      3.54271      173.518 
-9.81766e-05      8.66380     -36.5513 
-0.000229151      7.08396      108.945 
0.000172016      11.7802      53.4228 
0.000137635      3.50809     -105.546 
-0.000100499      6.01110      7.45238 
-9.62990e-05      11.4418      144.893 
-0.000448097      11.7496     -34.5274 
0.000132666      5.89777      61.4361 
-0.000149288      8.36383     -142.773 
0.000166958      5.01869      157.012 
0.000425961      13.6067      138.812 
-0.000144786      6.68479      52.1679 
0.000191563      4.38156     -82.1252 
0.000135308      8.49001      169.962 
6.92405e-05      9.54473      115.705 
0.000258434      4.74127     -128.323 
6.86024e-05      8.55834      40.1632 
0.000132308      7.67311     -173.266 
6.63064e-05      8.55349     -102.834 
3.46920e-05      13.4038      138.509 
0.000314499      9.73130     -58.5309 
-6.33050e-05      7.65540      173.098 
-6.57244e-05      8.85479     -34.6961 
0.000328102      8.30617     -57.6868 
-0.000206865      9.98113      90.8055 
0.000120342      9.23359      58.8238 
0.000379672      8.76843     -72.8893 
3.38568e-05      5.77873      117.627 
-6.58897e-05      5.87178      53.1667 
-3.38018e-05      9.95988     -15.0121 
-6.35545e-05      9.25812     -30.2207 
-0.000170933      4.10016      89.7169 
0.000117682      9.39411      66.2750 
-6.22770e-05      11.1518     -47.1814 
-3.29008e-05      9.46056      167.052 
-0.000485012      8.73100     -158.078 
-6.30274e-05      8.60327     -160.299 
-8.88001e-05      3.56074      38.1620 
0.000180016      9.32015     -89.5064 
6.13488e-05      4.13276      175.564 
0.000328812      10.5890      162.523 
0.000316545      9.53628      115.599 
3.21990e-05      9.93110      162.658 
-8.93366e-05      9.94031     -15.0423 
3.19531e-05      9.55787      163.840 
6.19862e-05      5.20097     -105.155 
-0.000135815      12.0219      132.101 
-0.000233114      2.54875      63.4349 
-5.97007e-05      10.2510      39.9339 
-3.14427e-05      6.12133     -178.876 
0.000101541      8.57142      40.2667 
-0.000404039      9.53568     -67.0406 
0.000163915      7.33875     -67.9092 
-0.000187123      7.06480      108.999 
0.000260439      8.34145      170.200 
-0.000215967      8.18695      167.728 
3.08373e-05      9.87113      84.1841 
-0.000530185      8.28549      165.460 
-3.05591e-05      13.8801      133.191 
-5.91298e-05      7.78227     -133.128 
-0.000132705      5.85618      53.0523 
-0.000129805      3.57082     -85.5043 
0.000258200      11.3867     -64.0631 
3.02214e-05      8.76227     -172.129 
0.000299730      10.0157     -139.537 
0.000106707      9.90645      162.736 
2.99090e-05      4.88138      43.1749 
-2.98841e-05      10.5026      57.5203 
5.57101e-05      5.76971      117.455 
2.97650e-05      3.51337     -105.853 
-0.000178843      10.0059     -113.439 
-0.000108045      7.82210     -145.415 
-0.000154960      5.05364     -123.376 
0.000130695      13.9606     -43.8980 
-6.18987e-05      9.44082      167.024 
-5.42673e-05      11.0752     -113.974 
0.000237855      7.83186     -96.5966 
5.66305e-05      10.9685      152.174 
-0.000260640      11.9694     -36.0279 
8.34457e-05      4.04824     -72.4584 
-5.65363e-05      10.1405     -89.4361 
2.91740e-05      9.53842      163.806 
0.000322256      7.29628      150.973 
-0.000149032      8.96542     -29.5367 
5.63612e-05      3.51360     -111.013 
0.000148538      4.70177      1.71022 
8.75453e-05      7.67551     -173.116 
-2.89938e-05      5.39804      140.415 
2.87641e-05      9.95412     -104.427 
2.87658e-05      11.7760      53.2849 
2.87088e-05      10.6278      113.044 
0.000101984      4.78803     -83.7649 
-5.53934e-05      5.21287      144.054 
2.84760e-05      10.3752      116.563 
2.80389e-05      9.13232      158.547 
-5.39094e-05      8.04771      92.5652 
0.000120770      10.8452     -142.116 
0.000220410      8.24090     -173.028 
-2.79097e-05      7.16512     -4.80600 
-0.000297484      6.90931     -102.711 
5.12693e-05      5.88811      61.6092 
5.45459e-05      8.78234     -172.148 
8.76920e-05      13.8057      137.877 
2.76494e-05      9.86909      84.3011 
9.37161e-05      5.19590     -104.947 
0.000271750      11.3876     -149.383 
7.63117e-05      5.23318      154.412 
7.61071e-05      9.60005      75.6444 
7.33522e-05      12.0616     -39.5500 
-2.72152e-05      5.41309      140.546 
0.000210991      5.92955     -146.417 
-0.000116461      10.5827      69.3046 
0.000128305      12.4182      44.0868 
-9.67141e-05      10.5358      50.9317 
0.000300290      6.60402     -2.08375 
-0.000224637      13.8387      133.126 
0.000198791      5.72484     -12.9214 
5.20360e-05      2.62052      79.8903 
-0.000225978      11.1805     -47.1758 
-0.000155853      7.79707     -133.027 
-0.000196271      10.4984      57.7628 
-0.000127144      12.7591      128.829 
7.14399e-05      5.33581      75.2368 
2.65365e-05      8.47006      169.939 
7.42705e-05      9.24535     -141.148 
-0.000180566      10.3391     -21.8006 
7.30389e-05      10.4024      116.613 
0.000329902      10.6662      109.728 
-2.63301e-05      9.06558     -35.9346 
0.000365628      8.52237     -80.2723 
0.000163959      9.30083     -89.3852 
-0.000574810      14.4674     -45.0546 
2.60977e-05      4.86129     -35.4565 
4.97349e-05      3.00854     -164.581 
7.95147e-05      9.08789      158.575 
-0.000347346      8.96261     -144.535 
9.71024e-05      12.1843      128.469 
2.58119e-05      13.3797     -45.7271 
-6.68970e-05      6.01918      171.981 
-5.04776e-05      11.2149      122.105 
-0.000109467      5.40072      140.706 
-4.78449e-05      4.19591     -166.493 
-0.000179811      10.1200     -89.5454 
0.000225181      9.88482     -105.611 
-4.85159e-05      11.1225     -61.7752 
0.000219486      10.6111      73.2387 
4.83189e-05      10.9506      152.125 
0.000104805      7.65540     -173.098 
-2.52460e-05      8.24752     -71.9145 
-4.33705e-05      8.86591     -34.7997 
-4.32167e-05      6.02795      7.24445 
2.50521e-05      8.65486     -171.494 
-0.000108956      10.2660      39.8640 
-4.90528e-05      7.72465      51.2029 
4.72486e-05      3.50205     -111.441 
-0.000504202      9.98087      90.6892 
-2.48356e-05      8.34830     -142.692 
8.54696e-05      11.8694      38.5704 
-8.87268e-05      5.22867      144.179 
0.000180752      4.90605     -35.3747 
-0.000422893      11.1130     -61.8672 
-0.000248530      11.0442      53.1729 
2.45611e-05      4.11708     -71.3009 
2.44594e-05      12.4042      44.1495 
2.43983e-05      8.55801     -102.966 
0.000125761      11.8975     -128.583 
2.41332e-05      13.3511     -45.7287 
0.000123042      9.00686     -102.310 
6.41379e-05      6.59666     -55.2488 
2.40649e-05      6.96589     -166.043 
-4.70780e-05      6.87823      21.4903 
-0.000106338      12.1710     -123.064 
-8.86097e-05      3.57247     -85.1804 
-2.37454e-05      10.5042      47.6231 
-4.58456e-05      9.14258     -34.6657 
2.37167e-05      8.76507     -171.998 
-9.01050e-05      11.2320      122.050 
-0.000353232      12.7469      128.760 
0.000105507      13.3652     -45.6665 
-0.000305360      11.0941     -49.5345 
2.33420e-05      4.38427     -81.8727 
2.32092e-05      12.1875      145.630 
8.55786e-05      6.95097     -165.847 
6.53913e-05      4.12362     -71.0342 
-2.28353e-05      4.62987     -50.2539 
-7.98120e-05      7.14660     -4.97547 
-0.000521855      12.1599     -122.984 
0.000143925      8.84933      78.1336 
-6.04050e-05      13.4721     -132.955 
-6.59017e-05      7.71506      51.5238 
2.26912e-05      10.1375      74.3208 
8.43762e-05      8.38484      170.111 
2.26754e-05      11.8853      38.5095 
-0.000101344      7.83879     -145.499 
-0.000212451      9.63610      40.2020 
4.35643e-05      4.72873     -128.130 
-0.000124386      8.65093      80.0148 
-4.40518e-05      10.1202     -89.4350 
0.000211043      10.6594      109.625 
4.26851e-05      7.74115      108.059 
4.33633e-05      13.0085      140.238 
4.11786e-05      6.35829      119.388 
4.23502e-05      9.38628      66.3840 
-0.000196189      11.1361     -27.2540 
2.18835e-05      8.78513     -172.017 
6.28319e-05      10.1127      74.3962 
-0.000174129      7.70343      47.9493 
6.17607e-05      8.23130     -48.4480 
0.000223351      6.08151     -135.535 
7.81768e-05      12.1721      128.397 
2.16648e-05      13.0241      140.295 
0.000763254      11.3952     -63.9749 
2.16477e-05      5.76039      117.276 
4.19395e-05      7.73299     -172.119 
0.000153478      11.5272     -151.390 
-4.23919e-05      12.0369      132.036 
-2.14607e-05      6.29389     -82.5123 
-0.000163759      5.05443      21.5945 
2.14120e-05      5.87886      61.7765 
4.03998e-05      5.22446      154.613 
2.13288e-05      10.5099     -26.3199 
0.000191104      11.8642      143.363 
-4.09092e-05      4.60191     -50.2925 
-2.12650e-05      6.54901     -31.8926 
0.000125741      11.5450     -151.438 
-6.06393e-05      10.5092     -114.272 
-2.10611e-05      9.75141     -51.5771 
2.09903e-05      8.56241     -103.094 
-0.000446060      9.70810      114.982 
0.000207932      13.9747     -43.9579 
0.000227067      9.23312     -141.242 
8.08091e-05      10.1075      70.7041 
2.09344e-05      12.2043      145.684 
-0.000134934      11.2041      122.017 
-4.01768e-05      10.0851      123.184 
-0.000164045      8.20675      167.758 
-2.06520e-05      6.85938      21.5523 
9.46718e-05      7.56075      105.656 
2.05823e-05      6.50137      91.2367 
0.000241165      13.0365      140.229 
0.000110211      10.6829     -148.006 
5.86341e-05      10.9601      152.031 
-5.98205e-05      9.12012      155.516 
-0.000379374      13.5575      132.849 
2.04323e-05      9.36213      13.5918 
0.000217990      9.74868     -107.058 
2.03347e-05      4.77089     -83.4976 
-0.000108069      9.17034     -34.6940 
5.52393e-05      9.04374      158.598 
-5.71976e-05      9.56569     -14.0373 
-7.68646e-05      8.00490      139.867 
-0.000139404      10.1215      97.2662 
0.000124649      6.58452     -2.08992 
5.66216e-05      9.52755      115.489 
-1.98362e-05      11.4689      144.870 
-5.47240e-05      7.30838      36.4322 
1.97726e-05      11.0968      118.411 
-5.33526e-05      10.0242     -7.44953 
1.96955e-05      3.02735     -164.679 
3.78420e-05      9.92030     -142.783 
3.88855e-05      10.1073      74.5069 
3.74898e-05      8.29536     -57.8051 
-0.000170780      12.0505      132.108 
5.80128e-05      10.5608      104.589 
0.000475344      11.8724     -57.3797 
3.66272e-05      13.3524     -136.093 
3.83700e-05      8.27268      127.537 
-9.43938e-05      7.10118      179.031 
1.93522e-05      10.3790      78.2148 
-1.92714e-05      5.21423     -158.160 
0.000123119      5.91331     -146.312 
3.66320e-05      4.68227      1.71735 
-6.81403e-05      9.44391     -50.2416 
0.000141394      10.1142      70.5958 
-3.72929e-05      8.32851     -83.7983 
-3.77137e-05      6.66904     -84.6672 
1.90802e-05      9.34244      13.6210 
3.58899e-05      8.67490     -171.514 
-5.53739e-05      6.68858      167.916 
-0.000136355      7.52945     -9.78900 
-3.55244e-05      6.56558     -31.8027 
-0.000121293      11.6732     -28.8915 
-1.89352e-05      10.0007     -176.330 
-1.87591e-05      6.14048     -179.069 
1.87106e-05      10.1336      75.7158 
1.87090e-05      10.6399     -36.4391 
0.000265723      10.5557      104.483 
5.34950e-05      6.97062     -165.887 
-1.86057e-05      11.2085     -47.1677 
-3.51523e-05      4.61488     -50.0990 
-1.86043e-05      9.88888      30.5074 
-1.85964e-05      9.84522      133.848 
-0.000113672      5.00119     -7.35320 
6.70947e-05      10.1819     -76.0201 
1.85359e-05      7.83422     -96.7438 
-1.84357e-05      8.25899      93.8864 
-8.36006e-05      11.9061     -131.185 
0.000167671      10.3751      78.3203 
3.56473e-05      5.86931      61.9508 
6.67456e-05      9.25424     -58.6132 
0.000101251      10.1268      74.5375 
-0.000700306      13.7967      133.063 
3.62503e-05      11.8536      38.6315 
-1.83676e-05      11.7329     -34.5834 
-7.26882e-05      5.10723      106.377 
-1.82516e-05      12.8965     -52.5607 
1.83068e-05      4.70078      47.7626 
-4.63865e-05      5.41641      140.842 
5.32374e-05      10.6682     -36.4620 
-5.01784e-05      9.23738     -166.987 
0.000203306      8.30063      127.559 
-5.19893e-05      5.23304     -158.243 
-1.81342e-05      8.39233      115.099 
0.000427878      10.6169      73.1340 
6.79683e-05      10.9327      152.075 
-5.06890e-05      9.10169      155.463 
-0.000147372      9.86114      30.4658 
-0.000666389      11.5221     -27.4996 
-5.25516e-05      7.91669     -104.632 
-5.16743e-05      6.65079     -84.4772 
-6.84179e-05      10.5175     -114.373 
-2.87609e-05      11.7778     -34.5527 
-8.65489e-05      11.1948     -47.2437 
6.99524e-05      13.8904      133.833 
8.29237e-05      13.3366     -45.6679 
0.000203380      12.6984      140.368 
-3.42554e-05      8.23878      93.8960 
8.68181e-05      11.1179      136.168 
-1.78145e-05      10.5481      50.8494 
-6.73049e-05      7.12068      179.034 
-3.45139e-05      6.89982      6.15578 
-5.06979e-05      8.94780     -29.6007 
-0.000168030      5.24511      144.309 
-0.000111385      10.3467     -21.9048 
-6.69354e-05      7.97683      139.880 
1.76985e-05      9.03734      135.269 
1.76609e-05      7.73512      107.922 
-0.000206700      6.66877      167.880 
1.76339e-05      9.06895      65.9205 
3.34692e-05      8.58632      40.1825 
-0.000165469      6.73769     -97.5065 
-3.30759e-05      10.5035      47.4697 
1.75666e-05      11.8230     -135.273 
-0.000114593      11.0453     -121.674 
0.000256334      9.95966      77.9450 
4.86108e-05      9.35739      13.4712 
4.91522e-05      7.83464      113.948 
4.96267e-05      9.05505      23.5633 
-6.51921e-05      10.0921      131.144 
-4.86017e-05      10.6636     -108.708 
-5.00971e-05      7.81189     -132.925 
-3.39412e-05      12.4998     -53.1287 
4.82370e-05      9.79913      77.8657 
-3.28999e-05      8.14007     -128.615 
-0.000121710      11.1934      121.929 
-0.000184523      9.21931      86.2666 
-0.000218128      12.2420     -132.817 
-6.36865e-05      7.85549     -145.583 
1.70059e-05      10.4289      116.665 
0.000165912      14.2707      44.2608 
-1.69995e-05      6.01649      172.165 
-9.08604e-05      6.64887     -84.6510 
-0.000104831      11.7611     -34.6087 
0.000668950      13.9325      133.894 
1.68803e-05      6.63840     -12.5281 
-9.41329e-05      11.1188     -27.3000 
3.25476e-05      8.96307      137.803 
4.79723e-05      5.76952      117.012 
1.67481e-05      11.8092     -135.206 
3.27793e-05      10.6519     -36.5268 
1.66989e-05      5.89096     -145.929 
3.07483e-05      11.8853     -128.510 
0.000219541      13.0659      51.4635 
-0.000302549      7.91178     -104.495 
-0.000123296      8.00667     -161.203 
0.000107755      10.7582      108.875 
6.29842e-05      5.85981      62.1256 
0.000168667      9.04727      23.4501 
3.20215e-05      8.56942     -173.837 
-0.000136109      9.84433      30.5233 
-3.22216e-05      6.36040     -179.642 
1.64771e-05      9.03699      135.447 
4.75654e-05      10.1214      74.6480 
-1.64374e-05      6.73507     -97.3356 
0.000159637      11.1320      136.237 
3.05431e-05      9.43287      171.956 
-3.19472e-05      11.2234     -47.2380 
-4.75312e-05      5.83573     -157.214 
-1.64245e-05      13.8248      133.064 
3.20681e-05      10.3445      110.014 
-3.19532e-05      7.55030     -5.16607 
9.05798e-05      11.3474     -40.5697 
-1.63127e-05      6.86685      21.7096 
-0.000128825      6.90488     -102.547 
6.11630e-05      4.33316      57.6255 
3.20945e-05      8.49973     -80.3847 
7.68837e-05      5.74897     -13.0658 
4.56762e-05      7.66607      22.5513 
0.000277140      9.78530     -5.51386 
-9.65639e-05      9.21764     -166.958 
4.72494e-05      9.77914     -97.2826 
4.52906e-05      5.04114     -107.785 
-9.94478e-05      11.1867     -47.8982 
8.86639e-05      7.56604      105.798 
-0.000200478      8.26588      165.425 
3.14118e-05      6.61332     -55.3488 
-0.000413870      12.5115     -53.0573 
5.96191e-05      4.68289      1.95595 
-5.96886e-05      11.2097     -47.3140 
1.58806e-05      12.1350     -134.198 
9.92672e-05      10.9226      130.545 
-4.51532e-05      7.28005      36.3986 
-5.83051e-05      9.50942     -67.1012 
-7.48419e-05      12.1793     -46.2632 
3.04549e-05      6.48145      91.0614 
1.56666e-05      8.36488      170.087 
7.20586e-05      10.9367     -118.628 
-5.99874e-05      10.4024      26.6131 
0.000354345      9.77669     -97.1692 
-3.06638e-05      8.65447      79.8827 
-5.53645e-05      8.20247      167.896 
0.000110582      10.5949      162.422 
-6.03174e-05      12.2671     -43.2154 
-7.34152e-05      10.2558     -9.99438 
-1.54991e-05      13.4732     -132.833 
2.85587e-05      12.0165      138.643 
-1.54767e-05      6.91791      5.97713 
-3.87870e-05      7.69037      48.0573 
0.000150070      10.6803     -36.5495 
-1.54337e-05      11.0321      53.2572 
-8.84481e-05      11.3969     -117.598 
-0.000135818      11.1348     -49.4439 
5.78277e-05      10.1840      70.4970 
-1.52962e-05      10.4877      57.8564 
-6.73841e-05      4.35582      135.370 
-5.64573e-05      10.7153     -22.4973 
-5.48888e-05      7.79811     -132.816 
-3.00180e-05      8.40965      33.1598 
-4.34749e-05      10.5645      121.376 
-0.000259775      11.4979      130.063 
8.28990e-05      10.7098     -147.972 
-1.52253e-05      3.63830      75.3533 
-0.000199655      7.51023     -9.81431 
1.52265e-05      12.1596      128.322 
8.40983e-05      5.89646     -146.203 
-5.80024e-05      10.6624      35.6867 
-9.32750e-05      9.17383     -111.084 
-1.50840e-05      8.57818     -25.8478 
1.51128e-05      4.61565      63.2142 
2.85549e-05      9.88652      84.4292 
4.32201e-05      3.70626      158.140 
2.97172e-05      11.3914     -40.5145 
7.06834e-05      11.0893      30.4484 
1.49228e-05      8.60682     -174.000 
7.14800e-05      13.6472      134.822 
-4.37957e-05      11.1404     -61.8244 
-6.88392e-05      10.4945      58.0055 
2.94605e-05      11.7095     -119.016 
-0.000137371      9.69836     -83.7235 
-4.27473e-05      11.1998     -47.8242 
2.91408e-05      6.60182     -55.4935 
1.47730e-05      11.4154     -149.347 
4.23934e-05      10.3635      109.975 
1.47533e-05      11.9889      138.651 
1.47523e-05      4.43987      169.098 
4.31871e-05      7.40149     -42.9212 
0.000327439      8.50314     -80.2501 
-1.47243e-05      9.39491     -19.7853 
8.02214e-05      13.5073     -41.2183 
-0.000184333      11.0351     -121.588 
-0.000279100      9.69956      114.874 
-7.33177e-05      11.9530     -36.0850 
-0.000154813      7.85379      150.562 
-2.79903e-05      7.16503      120.715 
-1.46225e-05      5.81705     -157.136 
1.46075e-05      9.59989     -179.642 
4.28623e-05      11.4062     -40.4508 
0.000228933      10.4763     -152.113 
0.000154616      9.86531     -105.643 
5.58889e-05      12.2762     -44.2075 
1.45001e-05      4.92197     -35.2432 
2.83284e-05      8.68265     -174.316 
-1.44958e-05      3.63323      75.6624 
2.82682e-05      9.64848     -104.526 
-1.44747e-05      11.0523      121.533 
-1.44344e-05      8.88193     -34.7279 
1.44122e-05      7.86040      114.020 
2.74884e-05      9.05144      135.537 
-1.43836e-05      10.6692     -108.468 
-0.000171538      11.2537      59.3344 
-1.43900e-05      12.2390     -43.2137 
4.07394e-05      12.4215      55.3653 
-4.01879e-05      10.5818      121.318 
-8.98742e-05      11.6634     -28.8043 
4.19400e-05      13.0521      140.286 
9.31271e-05      5.85071      62.2945 
-2.60752e-05      8.15226     -128.722 
1.42795e-05      9.39824     -108.360 
0.000144401      12.6709      140.380 
-2.79297e-05      9.41744      167.113 
6.85913e-05      11.7000     -118.932 
0.000130082      10.7513     -51.0398 
0.000143112      9.35287      13.3550 
0.000145365      10.5508      104.380 
-6.70825e-05      8.65792      79.7556 
-2.79547e-05      9.78408      71.5289 
2.78858e-05      12.6965     -47.3616 
-1.41729e-05      11.9074     -131.050 
6.63063e-05      9.62015     -179.642 
-0.000143763      12.2248     -43.2763 
1.41067e-05      11.4051     -149.434 
6.78722e-05      13.2090      134.756 
9.19013e-05      4.60655      63.4391 
-0.000134287      11.3879     -117.511 
-0.000111808      8.39900      33.0483 
-2.72348e-05      9.34711     -124.097 
-4.02769e-05      8.58574     -155.944 
6.62470e-05      9.10675      158.621 
4.03240e-05      14.1419     -45.3440 
-4.12578e-05      11.0418      121.443 
2.73579e-05      8.70281     -174.329 
4.07242e-05      8.92502     -56.2378 
2.77344e-05      10.7876     -120.655 
0.000102584      10.1241      23.2739 
5.44163e-05      13.3620     -42.5739 
-6.67931e-05      9.67045     -156.086 
0.000160688      13.9466     -43.9536 
-9.34551e-05      8.02585     -161.250 
1.39723e-05      13.0566      141.093 
-7.89587e-05      11.1281     -27.3927 
4.10824e-05      11.1199      25.4584 
-6.51802e-05      10.6972     -26.9012 
-6.53340e-05      12.2277     -132.879 
-3.96138e-05      8.71290     -158.030 
-7.84471e-05      6.67289      167.716 
9.26265e-05      8.94947      137.899 
8.79786e-05      5.76798     -13.0220 
4.04888e-05      10.2634      95.2562 
-0.000151002      11.1308     -61.9164 
0.000140306      7.41634     -42.8146 
-1.38213e-05      6.93884     -31.4451 
-0.000133585      7.56875     -5.00517 
-1.37953e-05      10.6573     -107.925 
-1.37798e-05      12.1842     -132.939 
0.000138367      11.0794      30.3615 
-2.70041e-05      10.4289      26.6646 
-6.37656e-05      5.82791     -157.397 
-1.37252e-05      10.1050      131.228 
0.000287827      11.7599     -54.5524 
6.52567e-05      11.5793     -149.137 
-9.02033e-05      10.6460      35.7503 
-0.000141084      11.2246     -47.3841 
7.76876e-05      11.2293     -45.2897 
-3.98170e-05      3.71052      68.8269 
7.93960e-05      9.03891      131.591 
-9.65586e-05      10.3286     -21.9452 
3.88306e-05      10.7189      22.2595 
-7.76550e-05      10.3185     -10.0473 
-5.26954e-05      11.4771     -118.978 
-7.46596e-05      7.80408     -69.2892 
-2.65577e-05      9.95044     -162.692 
0.000348583      12.6816     -47.2996 
-2.66235e-05      9.79051      71.4165 
-7.65367e-05      6.58281     -31.7098 
-5.23152e-05      8.88116      83.2749 
-6.31191e-05      12.5756     -40.9376 
-1.34386e-05      12.7723     -45.9521 
2.64296e-05      10.1908      70.3896 
-2.56208e-05      4.83630      94.7437 
2.64518e-05      10.7646      108.973 
-7.21781e-05      8.18267      167.867 
0.000110741      9.64375      122.209 
-6.14036e-05      9.68695      26.6186 
9.68045e-05      10.7229     -51.0559 
3.78937e-05      13.6615      134.882 
2.61280e-05      13.0396      140.351 
-8.99769e-05      9.66226     -156.196 
9.97464e-05      12.2903     -44.2752 
3.84578e-05      9.79504      77.9773 
-5.13013e-05      9.08394      155.412 
7.62526e-05      11.8895     -57.4323 
0.000110219      10.9270     -118.534 
-0.000149595      12.8004     -45.9477 
1.32280e-05      13.5220     -41.1638 
0.000109519      11.1287      25.5525 
0.000241845      13.3476     -42.6306 
-6.22288e-05      10.6510     -107.821 
3.87885e-05      11.4781     -32.6927 
0.000219141      13.0780      51.3967 
-5.05900e-05      13.3122     -46.5211 
-8.65752e-05      12.1659     -122.852 
2.56637e-05      9.86220     -100.398 
3.79274e-05      13.0408      141.037 
1.31241e-05      11.8727     -128.433 
-2.57160e-05      6.06659     -129.514 
-0.000336803      13.5861      132.854 
3.68412e-05      9.65359     -104.642 
-7.43735e-05      11.0312      121.353 
6.28651e-05      10.3566      109.870 
0.000104164      6.06734     -135.671 
-2.56647e-05      3.53825     -42.7053 
3.74304e-05      10.7773     -120.563 
-0.000296993      8.69823      138.354 
2.57557e-05      9.80955     -81.4391 
-7.31491e-05      6.70523     -92.2191 
-0.000263194      11.5390      130.149 
0.000190126      10.2001      90.2234 
1.29445e-05      10.0615      104.976 
-0.000141705      12.1769     -122.932 
-0.000120291      9.63915      161.114 
1.29115e-05      11.9163     -49.4922 
-2.52966e-05      9.80329      71.5664 
-1.29176e-05      6.66725     -84.8342 
-1.28971e-05      10.4827     -165.753 
1.28705e-05      6.95595     -165.685 
1.28672e-05      7.82177     -111.445 
1.28457e-05      8.57086      128.370 
-0.000141545      12.9595     -128.797 
-6.05979e-05      4.83467      94.5044 
1.27809e-05      9.46012     -147.520 
7.23954e-05      13.2227      134.816 
1.27638e-05      14.2559     -135.567 
9.67581e-05      10.2652      95.3647 
-7.19782e-05      8.03880     -161.428 
-1.27313e-05      9.39769      167.086 
-7.41034e-05      8.66155      79.6237 
-1.27471e-05      9.48573     -92.0537 
-0.000135026      11.3785     -117.420 
1.27038e-05      8.26101     -173.045 
3.61766e-05      8.28875      127.452 
1.26948e-05      8.93445      137.812 
-3.66333e-05      7.68371      122.781 
-0.000261878      9.69616     -83.8425 
6.12690e-05      11.1068      30.3955 
-4.93470e-05      10.6226      28.4460 
7.35185e-05      9.05237      131.687 
5.99505e-05      10.7461      109.007 
-0.000155760      8.89893      83.4197 
2.51073e-05      9.80655     -81.5562 
1.25888e-05      7.40314     -83.7971 
1.25953e-05      11.5410      141.401 
6.08451e-05      12.5722      135.193 
-0.000107417      10.5919      121.409 
4.95905e-05      11.4952     -32.6381 
-6.11893e-05      9.50598     -92.0493 
6.08788e-05      10.0616     -37.8963 
2.47868e-05      7.78843     -111.227 
0.000185442      5.87481     -145.823 
0.000165884      11.8615     -57.4621 
-8.51285e-05      11.6897      149.575 
-2.49082e-05      9.12510     -67.9869 
3.64569e-05      4.93067      167.823 
-3.65203e-05      10.2565      101.243 
3.65237e-05      9.66719      177.749 
-8.32971e-05      8.34450     -145.052 
4.82562e-05      10.3136      115.870 
2.46534e-05      14.2420     -135.512 
-4.80748e-05      9.98065      90.5729 
3.57861e-05      11.1466      136.309 
2.43875e-05      12.1078     -133.928 
1.24115e-05      12.7556      40.3593 
2.44103e-05      5.14264     -178.219 
4.84861e-05      7.40535     -83.6412 
-1.23854e-05      12.7864     -45.8869 
7.17270e-05      11.5131      141.420 
-1.23860e-05      9.42917     -94.5005 
0.000130844      12.2763     -44.3388 
-0.000117476      12.0786      132.112 
1.22990e-05      10.0863      105.058 
-2.43700e-05      12.7627      128.703 
0.000106317      9.82884     -81.4560 
-3.63568e-05      6.07950     -129.662 
0.000152595      10.3207     -99.4788 
0.000187295      13.5358     -44.1038 
-4.79977e-05      9.64372     -156.148 
7.05386e-05      14.2704      45.6242 
1.22591e-05      11.1488     -149.847 
3.57182e-05      10.2099      70.4278 
-3.60629e-05      9.34458     -67.6074 
-4.80444e-05      10.3810     -10.0955 
1.22546e-05      11.2007     -45.2904 
-3.52625e-05      10.4630     -165.726 
2.43021e-05      8.55829      128.264 
2.38267e-05      9.44303     -147.454 
3.62782e-05      10.5458      104.274 
0.000116868      10.5817      162.285 
3.57596e-05      4.54244      169.087 
-5.86153e-05      11.4443      129.896 
-9.47898e-05      12.2524     -43.2802 
4.72863e-05      14.2562      45.6824 
-9.38904e-05      12.2409     -132.946 
-8.14269e-05      9.80972      71.4542 
3.50079e-05      5.84132      62.4705 
0.000117413      9.73197     -74.9940 
1.21187e-05      6.97559     -165.726 
5.86131e-05      9.86588     -100.513 
-1.21252e-05      10.7418     -22.5558 
-2.37612e-05      9.96979     -162.727 
-5.83601e-05      10.7066      66.7861 
-2.39856e-05      9.40746     -94.3917 
2.40211e-05      9.36652      100.828 
-2.38803e-05      8.56724     -155.889 
-2.38403e-05      8.57025      171.683 
2.37539e-05      8.25858     -173.185 
-1.20538e-05      8.69036      77.3714 
2.35135e-05      9.50758      65.9131 
-4.71899e-05      11.2108     -47.4603 
-9.34046e-05      13.3262     -46.4579 
-2.35338e-05      6.82992      21.8330 
-3.55527e-05      8.24700      165.391 
3.53733e-05      6.61790     -55.5892 
2.38747e-05      10.3497      109.764 
2.36826e-05      5.31882     -112.321 
8.18572e-05      11.5396     -32.6164 
-2.36760e-05      10.7153     -26.8522 
2.37032e-05      11.1386     -149.937 
1.19588e-05      11.8601     -128.356 
1.19886e-05      14.1989     -135.456 
-3.47941e-05      13.1993      133.464 
2.36515e-05      10.7370      22.2200 
3.54216e-05      5.82336      62.3783 
5.83177e-05      9.60490      103.486 
2.38367e-05      11.7434     -54.4951 
-4.68125e-05      9.63189      155.725 
6.98825e-05      9.51556      65.8058 
5.78107e-05      9.87059     -105.752 
-1.19177e-05      8.05730     -161.472 
2.31987e-05      12.0369      36.1476 
7.01630e-05      10.5212      104.194 
-3.47555e-05      11.1848     -47.7545 
3.53685e-05      5.53652     -116.846 
-2.34452e-05      9.19864     -166.931 
2.33187e-05      13.6753      134.940 
-2.35775e-05      10.3377     -10.0285 
-2.33422e-05      6.65310      167.679 
4.64393e-05      13.4951      132.057 
-5.80772e-05      10.6133      28.3534 
-0.000138976      11.3692     -117.329 
-0.000175068      7.26653      131.764 
1.18464e-05      9.03648      23.6147 
1.18126e-05      7.54281     -76.0398 
6.93669e-05      11.7397      135.969 
-6.93673e-05      13.5259      40.9216 
-8.08865e-05      9.50673     -92.1713 
2.32892e-05      10.0140      174.039 
3.49319e-05      12.7946     -130.564 
-5.78239e-05      13.2319     -140.703 
2.32848e-05      10.2009     -76.0466 
-3.50451e-05      10.6295      35.8142 
-4.61045e-05      7.73854      78.3697 
-0.000103985      13.2984      130.975 
-0.000108246      12.5603     -40.9982 
5.78872e-05      11.9022      59.1694 
1.17840e-05      13.0394     -47.6729 
3.50165e-05      14.1850     -135.401 
-2.34446e-05      8.66522      79.4919 
3.45644e-05      13.0688      141.027 
-3.47777e-05      6.09453     -129.545 
-6.94266e-05      11.7072      149.625 
1.17195e-05      6.96099     -165.523 
-2.32389e-05      11.4673     -118.890 
2.32594e-05      10.1639      169.686 
-3.46952e-05      12.7342      128.689 
1.17251e-05      4.70983     -45.5164 
-6.91426e-05      13.5959      138.101 
-6.91065e-05      12.8140     -45.8850 
2.31051e-05      10.6061     -161.529 
-1.16550e-05      11.1984     -47.6778 
2.30730e-05      12.5866      135.258 
-3.45558e-05      9.40897     -94.5102 
0.000114884      10.2704      81.6017 
2.30371e-05      9.33316      13.3837 
3.46160e-05      10.0736     -37.9839 
8.02407e-05      11.7713     -54.4751 
-0.000149227      11.5311     -27.5856 
1.16433e-05      5.72874     -151.199 
-6.87676e-05      10.5920      156.050 
-3.46254e-05      3.81589     -126.685 
4.59856e-05      13.7654      136.588 
1.16039e-05      10.3756      109.832 
1.16120e-05      12.7261      142.087 
2.30490e-05      4.72377     -45.6822 
-4.59251e-05      9.65193     -156.038 
-2.31084e-05      11.0471     -114.154 
1.15929e-05      12.0381     -133.722 
2.31292e-05      13.2600      137.140 
1.15946e-05      4.61987     -114.009 
-1.15886e-05      9.07685     -67.7307 
2.30468e-05      5.16214     -178.226 
4.57932e-05      7.43066     -42.7123 
-2.29598e-05      8.16091    -0.985217 
-2.29728e-05      8.66880      79.3651 
1.15290e-05      9.03725      131.772 
-2.29550e-05      11.1765     -49.3536 
1.15618e-05      12.9855     -132.065 
-4.58237e-05      11.0240      127.038 
3.43904e-05      5.54536     -117.026 
3.44204e-05      10.3688      109.727 
-1.15721e-05      14.2696     -134.489 
-1.15246e-05      11.1213     -62.0085 
3.43293e-05      14.1183     -136.492 
1.15180e-05      7.40754     -83.4912 
-1.15003e-05      11.1977     -47.5339 
-1.15044e-05      9.95893     -176.432 
-1.15015e-05      9.08754     -63.8835 
2.28943e-05      11.1211     -149.885 
1.14956e-05      5.03215      171.770 
-3.42656e-05      8.22229      165.492 
-2.28583e-05      12.4249      42.9124 
1.14690e-05      10.7670     -120.470 
2.28905e-05      12.7415      142.141 
-3.42071e-05      9.89527      20.9639 
-3.42182e-05      14.2420     -134.488 
-1.14806e-05      12.6523     -53.4210 
-2.28296e-05      9.99998      90.4600 
-2.28106e-05      10.1213      100.245 
0.000172417      12.3462      135.197 
-2.27757e-05      7.87145      150.635 
3.42023e-05      14.1706     -135.343 
-2.28249e-05      9.07971      89.8722 
2.27817e-05      10.2671      95.4773 
3.42231e-05      10.5164      104.091 
-2.28418e-05      9.38908     -67.5855 
-2.28122e-05      11.4575     -118.801 
-2.28025e-05      10.8528     -67.6873 
-2.27497e-05      12.2382     -43.3428 
-1.14271e-05      11.1101     -27.4408 
-1.14120e-05      3.29680      73.4294 
1.14488e-05      11.8488      127.662 
-1.14163e-05      10.6223     -33.4801 
1.14507e-05      11.5967     -149.188 
1.14111e-05      10.9094      130.464 
-2.27406e-05      10.9943     -62.3646 
1.14103e-05      10.3842      20.2866 
2.27507e-05      10.2164      70.3247 
1.14327e-05      4.62983     -113.690 
-1.14030e-05      4.63666     -171.062 
-1.14219e-05      11.7343      149.588 
1.13614e-05      13.6471      134.942 
-2.27077e-05      12.0481      142.824 
1.13635e-05      10.0668     -150.481 
1.13656e-05      12.9258      135.376 
1.13725e-05      5.01210      171.736 
1.13679e-05      8.35277     -127.804 
-1.13767e-05      9.64968      155.773 
1.13487e-05      10.7082     -36.5688 
-1.13476e-05      8.16749     -128.637 
-1.13432e-05      12.6123     -53.5112 
1.13493e-05      9.37035      100.950 
1.13347e-05      4.42846     -149.616 
-1.13194e-05      5.68485     -103.838 
0.000296741      12.6758     -49.9300 
8.68782e-05      10.7356     -50.9718 
0.000294767      11.9422     -49.3472 
9.26600e-05      10.0479      105.117 
0.000114628      8.34036     -127.694 
0.000102798      12.7253      40.4752 
-0.000104046      8.71338      138.442 
-7.64535e-05      14.1563     -134.598 
0.000156085      11.9459     -35.0477 
0.000155741      11.2763     -133.347 
8.68919e-05      12.2721     -38.9815 
8.57092e-05      12.9757      39.3067 
0.000164510      14.1563     -45.4016 
-9.53251e-05      10.6328     -107.513 
6.15569e-05      6.37601      98.8415 
3.67968e-05      8.43238     -113.040 
2.54073e-05      12.0794      130.096 
3.55257e-05      13.0258     -47.7387 
-2.45564e-05      9.42920     -119.339 
7.16933e-05      6.49002      65.8028 
-2.44508e-05      10.5125     -157.044 
-0.000125852      13.0312     -133.196 
1.22209e-05      9.36067     -89.5085 
8.12096e-05      9.84969      175.574 
-6.94462e-05      11.3606     -62.5328 
3.51943e-05      12.0508      130.085 
-2.37744e-05      10.7051     -22.6375 
4.64407e-05      4.41825     -149.842 
-2.36125e-05      10.6341      35.6618 
5.81045e-05      5.72830      134.294 
5.64277e-05      12.0235     -133.789 
-5.71036e-05      7.45218     -142.853 
3.49610e-05      11.8798      143.419 
-4.48106e-05      7.92164      128.025 
1.17972e-05      10.7738     -120.945 
-2.31246e-05      11.8867      137.047 
2.31024e-05      9.34026     -89.6318 
-9.01838e-05      10.3442      105.246 
2.25360e-05      8.35640     -127.609 
-1.16790e-05      10.5046     -157.146 
-5.63662e-05      13.1392      44.3220 
-6.91286e-05      9.34140     -67.3302 
6.83710e-05      9.37973     -108.397 
2.26085e-05      10.1405     -179.436 
-1.15050e-05      10.5748      115.307 
3.33691e-05      7.81282     -17.2759 
-1.14671e-05      9.91056     -108.836 
1.14347e-05      10.0342      174.051 
-1.13989e-05      5.69853     -107.986 
2.25750e-05      13.0539     -47.7305 
-1.14261e-05      11.1327      126.233 
-1.13345e-05      11.9360     -131.059 
-1.13521e-05      3.55088      25.6986 
-1.13071e-05      9.90721     -15.2152 
2.20634e-05      10.1606     -179.547 
0.000152528      10.0284      105.147 
-0.000104364      11.9078     -45.1379 
6.80185e-05      8.83204      2.98541 
2.32560e-05      11.1064      118.503 
-0.000112908      3.53331      25.8358 
-7.91202e-05      12.1652     -46.1996 
7.89108e-05      10.1319      23.3752 
4.54846e-05      12.6477     -49.9385 
-2.27915e-05      10.4231      135.545 
-1.15087e-05      11.1001      153.341 
-6.67611e-05      12.1424      52.0912 
-2.24826e-05      10.0310      61.7997 
-2.22813e-05      10.8957      64.3297 
6.68650e-05      14.2566      44.2024 
-1.12421e-05      4.16395     -131.888 
4.41378e-05      5.83198      62.6470 
-5.52160e-05      9.09613      133.486 
-2.20530e-05      10.7231     -22.5974 
2.22692e-05      8.15544     -47.7820 
6.85683e-05      12.6347     -50.0088 
8.99756e-05      11.1161      118.594 
-4.52454e-05      14.1708     -134.541 
-3.37943e-05      5.26158      144.438 
4.41993e-05      6.48027      65.5747 
4.41564e-05      4.40074     -149.710 
4.47087e-05      10.4429      42.9821 
-5.54301e-05      8.24212      103.328 
-3.30384e-05      11.9507     -130.998 
3.28507e-05      11.6902     -118.845 
2.21429e-05      13.2798      44.5719 
1.11414e-05      11.5442      141.543 
1.10758e-05      11.0306      66.0383 
-3.35014e-05      9.88766     -15.2460 
4.39920e-05      10.1724      70.3527 
3.26737e-05      8.26308      170.107 
2.19229e-05      9.01080      23.5507 
2.24026e-05      12.7408      40.4161 
-2.22557e-05      9.11009      133.578 
1.11499e-05      9.05238     -150.775 
2.18536e-05      10.4287      43.0552 
-3.28637e-05      7.54682     -4.86536 
1.10346e-05      13.1474     -50.7396 
2.17474e-05      9.24103      104.157 
1.10115e-05      11.5457     -32.4775 
2.16797e-05      7.81824      74.1135 
-2.17447e-05      11.3512     -62.6236 
2.17287e-05      8.18406     -47.7723 
-1.09074e-05      10.9005     -158.470 
2.18934e-05      11.5601      141.605 
-1.08639e-05      6.81111      21.8964 
2.16244e-05      12.1522     -36.5663 
-1.08181e-05      10.1674     -12.1509 
1.08146e-05      12.9600      39.3634 
1.07951e-05      9.68744      177.754 
1.12008e-05      8.33039      134.124 
1.11175e-05      12.7970     -51.5354 
1.10055e-05      10.9248      130.395 
1.09912e-05      9.07764     -151.005 
1.09419e-05      10.2037      169.727 
1.08322e-05      9.36052     -89.6325 
1.07934e-05      9.87054     -77.5983 
-1.07586e-05      10.5831      115.402 
-1.07437e-05      10.0402      61.7016 
-1.07322e-05      11.8735      137.115 
1.06721e-05      10.6731     -137.430 
-1.06525e-05      10.6999     -126.872 
! Tentative model.
! Flux (Jy) Radius (mas)  Theta (deg)  Major FWHM (mas)  Axial ratio   Phi (deg) T \
! Freq (Hz)     SpecIndex
1.15706e-05      10.0283      105.145 
