! Center RA: 12 21 31.69052,  Dec: +28 13 58.50011 (2000.0)
! Established model.
! Flux (Jy) Radius (mas)  Theta (deg)  Major FWHM (mas)  Axial ratio   Phi (deg) T \
! Freq (Hz)     SpecIndex
  0.158443      0.00000      0.00000 
0.00767451    0.0200000      180.000 
0.00540547    0.0282843     -135.000 
0.00503811    0.0200000      90.0000 
0.00110319    0.0447214     -116.565 
 0.0104272    0.0565685     -135.000 
0.00378027    0.0400000      90.0000 
 0.0111807    0.0447214      63.4349 
 0.0569934    0.0721110     -123.690 
0.00957985    0.0600000      90.0000 
 0.0508956    0.0632456      71.5651 
0.00764831    0.0848528     -135.000 
 0.0145382    0.0894427     -116.565 
 0.0170019    0.0800000      90.0000 
0.00876085    0.0824621     -104.036 
0.00241333     0.247386      104.036 
0.00402872     0.272029      107.103 
0.000307412     0.266833      102.995 
0.00364187    0.0824621      104.036 
0.00116282     0.228035      105.255 
0.000264710     0.208806      106.699 
0.000129414    0.0632456      108.435 
0.00105162     0.252982      108.435 
0.000701463     0.126491      108.435 
0.000830696     0.107703      111.801 
0.00104830    0.0632456     -108.435 
0.00133653     0.291204      105.945 
0.00158903     0.178885      116.565 
0.000183008     0.196977      113.962 
0.00107316     0.286356      102.095 
0.000673988     0.152315      113.199 
8.47380e-05    0.0282843     -45.0000 
0.000643778    0.0447214     -63.4349 
7.84249e-05     0.134164      116.565 
0.000811626     0.161245      119.745 
0.000788718    0.0600000     -90.0000 
0.00170137     0.305941      101.310 
7.32184e-05    0.0447214     -26.5651 
0.00180736     0.310483      104.931 
0.000271361    0.0400000      0.00000 
0.000788019    0.0600000      0.00000 
0.00127302     0.329848      104.036 
0.000795381     0.188680      122.005 
5.13864e-05     0.392938      104.744 
5.10152e-05    0.0824621     -14.0362 
0.000149526     0.436807      105.945 
0.000612974    0.0800000      0.00000 
0.000458075     0.205913      119.055 
0.000459977     0.456070      105.255 
0.000485332     0.101980     -11.3099 
0.000329123     0.480833      106.928 
0.000541762     0.101980     -101.310 
0.000822727     0.121655     -9.46232 
0.000232771     0.475395      104.621 
0.000361529     0.816088      107.103 
0.00106342     0.216333      123.690 
0.000725459     0.500000      106.260 
0.000186262     0.948683      108.435 
0.00168166     0.107703     -111.801 
0.000326541     0.967678      108.060 
0.000100548     0.791202      106.144 
0.000250276     0.796994      107.526 
3.19381e-05     0.145602     -15.9454 
0.000502088     0.164924     -14.0362 
0.000212948     0.986712      107.700 
0.000119649     0.772010      106.557 
5.91378e-05     0.494773      104.036 
0.000170161      1.02840      103.496 
0.000163771      1.04785      103.241 
0.000605077     0.708802      106.390 
0.000293596     0.942550      107.281 
6.59784e-05     0.664831      105.709 
3.25227e-05     0.601664      105.422 
3.21527e-05     0.956033      105.781 
9.43320e-05     0.577235      104.036 
0.000453077     0.728011      105.945 
6.19875e-05     0.961665      106.928 
0.000207175     0.557853      104.534 
6.04605e-05     0.989545      104.036 
0.000353412     0.100000     -126.870 
0.000380234     0.752861      106.991 
2.94163e-05      1.00896      103.761 
8.46452e-05    0.0632456      18.4349 
0.000649376     0.533667      102.995 
8.14292e-05     0.929731      108.825 
0.000179099     0.955196      109.573 
0.000317689     0.100000      0.00000 
0.000389105      1.07201      104.036 
4.76806e-05     0.936376      109.983 
0.000343155     0.962081      110.695 
0.000748005     0.514198      103.496 
0.000767033     0.747262      105.524 
0.000182897     0.141421     -8.13010 
0.000277400      1.09636      104.797 
5.71545e-05     0.969330      111.801 
0.000303889     0.995389      112.443 
0.000373720     0.325576      100.620 
0.000235296     0.184391     -12.5288 
0.000253901      1.11571      104.534 
0.000207244     0.228035      127.875 
0.000249196      1.02956      114.075 
0.000201262     0.208806     -16.6992 
2.68537e-05     0.493964      111.371 
0.000262504      1.14018      105.255 
6.15133e-05     0.501597      113.499 
0.000166370      4.63068      109.687 
0.000147562     0.200000      126.870 
6.08500e-05      1.03788      115.084 
0.000395869     0.228035     -15.2551 
5.84814e-05     0.871321      99.2461 
0.000241870      2.27059      107.956 
1.17936e-05      2.63469      105.408 
4.57674e-05      1.06452      115.602 
0.000506827      2.64008      105.826 
5.45806e-05     0.536656      116.565 
0.000151324     0.868332      97.9435 
9.46704e-05      1.07331      116.565 
0.000397783      4.63746      109.920 
0.000234569      1.16482      105.945 
9.90537e-05     0.322490      97.1250 
5.89194e-05     0.240832      131.634 
3.00804e-05     0.545894      118.443 
1.01298e-05     0.722772      104.421 
0.000451933      1.04403      69.8293 
0.000131519      1.03730      70.8664 
1.95734e-05      1.10018      117.031 
7.21341e-05     0.529528      100.886 
1.90698e-05     0.583095      120.964 
9.89788e-05      1.10941      117.951 
0.000114865     0.742159      104.036 
0.000154784     0.212603      131.186 
4.47183e-05     0.593633      122.619 
0.000172424     0.891067      99.0395 
0.000272304      1.18962      106.607 
0.000157629     0.300666      93.8141 
0.000159979      4.28896      109.618 
5.22290e-05      2.27684      108.435 
7.13266e-05     0.254558      135.000 
0.000237902     0.247386     -14.0362 
3.41132e-05      3.96020      113.199 
0.000394857     0.888144      97.7652 
0.000105770      3.95237      112.932 
2.36013e-05     0.644050      126.158 
6.37626e-05      1.14612      119.249 
0.000164374      2.25158      108.113 
8.19497e-06     0.696563      129.174 
2.40791e-05     0.506360      99.0903 
2.40099e-05      3.56208      130.217 
8.06831e-06     0.750733      131.760 
2.29596e-05      1.21458      107.241 
0.000140747      1.37928      106.858 
3.09485e-05     0.792465      132.955 
0.000307161      3.52102      129.931 
7.24360e-05     0.503587      96.8428 
0.000137003      3.92617      112.777 
0.000216537      3.49954      110.403 
0.000102164     0.128062     -141.340 
7.02755e-05      1.18338      120.466 
1.47215e-05     0.834506      134.029 
0.000139420     0.272029     -17.1027 
0.000284875      1.83663      128.367 
0.000367270      4.59430      119.466 
7.20527e-06     0.876812      135.000 
2.80221e-05     0.269072      138.013 
7.11622e-06     0.919348      135.881 
5.38025e-05     0.990353      136.637 
3.42117e-05      3.37503      114.135 
0.000360833      2.21305      83.7742 
5.69726e-05     0.604649      124.216 
0.000201484      4.31453      109.779 
0.000159719     0.910824      98.8418 
7.02802e-05      4.64431      110.152 
7.57432e-05      3.40975      114.611 
1.97406e-05     0.342345      173.290 
0.000155663     0.300000      90.0000 
0.000124876      1.99459      116.822 
0.000142808      3.61784      109.036 
6.59739e-05     0.501597      94.5739 
0.000109773      1.39843      106.621 
6.15649e-05      1.22115      121.608 
4.83114e-05     0.161245     -60.2551 
0.000200060      3.99645      120.029 
4.79556e-05     0.384708      171.027 
0.000255295      1.01863      136.591 
6.27716e-06     0.284253      140.711 
2.92300e-05     0.656049      127.569 
8.05881e-05     0.226274     -45.0000 
7.78779e-05      2.25788      108.595 
7.12605e-05      4.65124      110.383 
0.000112195      3.41813      114.916 
1.70755e-05      1.01607      126.193 
4.91209e-05      1.25936      122.681 
1.11481e-05     0.300000      143.130 
8.03634e-05     0.427551      169.216 
1.03733e-05      1.02801      127.093 
1.09257e-05     0.988130      125.942 
6.96589e-05     0.616117      125.754 
0.000135716      1.00000      126.870 
2.58166e-05     0.500400      92.2906 
1.04465e-05     0.120000     -90.0000 
0.000150089      4.02517      115.928 
3.44480e-05      1.79889      98.3103 
0.000166839      1.95888      116.042 
1.02572e-05     0.316228      145.305 
0.000192145      1.84391      93.7314 
5.15860e-06      1.43694      98.8068 
0.000183460      3.58603      108.536 
6.18583e-05      1.30920      124.418 
5.08575e-06      3.59244      108.838 
0.000107034     0.266833     -12.9946 
4.77652e-05      2.31897      104.995 
9.24672e-05     0.777946      107.969 
6.51400e-05      4.65824      110.614 
2.32458e-05      1.32257      110.353 
1.89682e-05      1.41421      98.1301 
4.91848e-05      1.40428      107.403 
1.85063e-05     0.332866      147.265 
1.88625e-05     0.480000      90.0000 
0.000148813      3.45323      115.378 
4.79113e-06      3.17918      111.400 
1.86322e-05      3.09742      111.595 
0.000137498      2.64560      106.243 
3.54963e-05      3.94462      112.665 
1.80585e-05      3.07883      111.732 
0.000133768     0.668431      128.928 
6.18428e-05      1.79622      127.763 
7.37357e-05      1.80189      98.9396 
9.63489e-05      1.34833      110.854 
4.48026e-06      1.06151      137.291 
7.13987e-05     0.480416      87.6141 
6.78258e-05      2.31387      104.517 
6.42751e-05      3.47384      110.209 
5.33939e-05      4.32134      110.028 
0.000220841      2.77308      101.229 
2.15169e-05     0.470744      167.735 
2.09705e-05      1.38924      96.6135 
6.74242e-05      3.85751      128.474 
5.25239e-05      3.07148      111.386 
0.000155656     0.280713      85.9144 
0.000173687      1.34848      125.340 
4.33570e-06      3.09011      111.251 
9.13793e-05      3.50657      110.709 
6.63742e-05      4.66532      110.844 
5.19805e-05     0.349857      149.036 
4.20730e-06      3.12743      110.985 
6.44268e-05     0.240832     -41.6335 
1.61872e-05      3.96308      112.553 
3.79800e-05      2.23893      108.759 
2.76761e-05     0.490306      168.232 
7.97496e-06      3.14611      110.854 
4.78036e-05      3.98156      112.443 
4.60689e-05      1.36367      94.2054 
0.000136288      4.02378      120.133 
2.20328e-05      1.38521      107.650 
4.22825e-05     0.291204     -15.9454 
0.000180160      1.80278      109.440 
2.48006e-05      3.12032      110.642 
0.000139105     0.553173      167.471 
0.000121220      1.01213      127.776 
2.80636e-05      1.84911      128.853 
0.000151591      2.90193      113.562 
3.37229e-05      3.06425      111.038 
0.000127926      4.58450      119.249 
9.56183e-05      2.33829      104.868 
5.73409e-05      4.67247      111.073 
4.75426e-05     0.481664      85.2364 
4.71700e-05      2.24544      109.242 
3.86670e-05      4.51699      112.932 
2.28890e-05      4.00005      112.333 
0.000122466      3.46185      115.677 
2.20089e-05      2.10950      111.701 
5.03518e-05      3.86999      128.706 
7.78533e-05     0.310483     -14.9314 
3.28038e-05      3.97397      112.176 
7.33891e-05      3.09458      110.426 
6.16296e-05      1.34373      94.2679 
6.16262e-05      1.65855      123.690 
7.52967e-05      3.35678      118.856 
2.10217e-05      4.52482      113.165 
5.80131e-06      3.88479      112.075 
2.65276e-05      3.07584      110.556 
8.61613e-06      1.04000      67.3801 
3.57591e-05      2.12810      111.501 
5.30394e-05     0.284253     -39.2894 
7.98104e-05      4.54321      113.066 
4.51452e-05      2.62084      105.945 
8.45633e-06      1.84532      94.3511 
4.87412e-05      4.28229      109.366 
4.61065e-05      4.67970      111.301 
8.38031e-06     0.483735      82.8750 
5.70716e-05      2.25211      109.722 
2.30629e-05     0.722496      131.634 
-0.000144888      1.94010      89.4093 
5.18389e-05      3.99249      112.068 
2.76532e-06      1.82483      99.4623 
2.58242e-05     0.470744      77.7352 
4.03044e-05     0.152315     -156.801 
2.85749e-05      3.87732      111.801 
1.28853e-05      1.37361      106.060 
2.12784e-05      1.82822      100.081 
1.63124e-05      1.03247      68.4047 
1.62639e-05     0.367151      150.642 
2.06800e-05      3.46733      129.382 
9.47981e-06     0.475395      75.3791 
1.97696e-05      1.36821      105.255 
-5.01671e-05      3.61536      105.728 
2.35242e-06      3.45468      129.126 
3.25226e-05     0.329848     -14.0362 
1.76881e-05     0.468188      70.0169 
-5.35592e-05      4.35247      107.103 
2.14451e-05      4.68700      111.529 
2.52117e-05      1.32378      94.3323 
1.67661e-05      2.36812      105.680 
1.04149e-05      2.62640      106.365 
1.46853e-05      2.25894      110.200 
1.86922e-05      2.89399      113.199 
1.44941e-05      3.06888      110.206 
1.03000e-05     0.300000     -36.8699 
1.23910e-05      4.27570      109.113 
2.10808e-06     0.480833      73.0725 
1.01844e-05     0.487032      70.8210 
8.14786e-06      3.55449      108.027 
6.11994e-06      4.01378      119.887 
8.08794e-06      1.86687      94.9166 
-1.01210e-05      1.52329      93.7640 
4.00722e-06      2.28464      110.497 
2.00625e-06      1.02450      128.660 
1.99430e-06     0.394462      149.534 
! Tentative model.
! Flux (Jy) Radius (mas)  Theta (deg)  Major FWHM (mas)  Axial ratio   Phi (deg) T \
! Freq (Hz)     SpecIndex
0.000263964      6.76145      107.738 
0.000139097      6.70179      110.436 
0.000239522      5.86205      121.467 
0.000107855      5.36574      119.718 
5.49943e-05      5.39303      119.798 
1.43289e-05      6.75805      110.258 
3.35598e-05      6.67608      110.335 
3.74008e-05      6.77681      110.200 
0.000369769      7.60389      109.674 
6.89440e-05      5.37569      119.904 
7.59392e-05      6.79559      110.142 
4.92223e-05      6.72431      107.303 
5.15525e-05      7.60318      110.962 
6.69375e-05      1.32061      91.7357 
-7.65605e-05      6.82961      106.153 
5.08888e-05      6.65038      110.233 
4.15731e-05      5.56176      119.515 
3.91228e-05      1.80278      109.440 
-3.41809e-05      3.61536      105.728 
2.92373e-05      5.34838      119.825 
2.44625e-05      6.71839      107.140 
2.44008e-05      4.40155      112.720 
1.90988e-05      1.20880      106.336 
9.41796e-06     0.487032      70.8210 
9.43019e-06      6.67608      106.535 
9.42604e-06     0.247386      75.9638 
9.39549e-06      5.55194      119.335 
9.39468e-06     0.709366      130.426 
