! Center RA: 12 21 31.69052,  Dec: +28 13 58.50022 (2000.0)
! Established model.
! Flux (Jy) Radius (mas)  Theta (deg)  Major FWHM (mas)  Axial ratio   Phi (deg) T \
! Freq (Hz)     SpecIndex
  0.114917      0.00000      0.00000 
 0.0430115    0.0300000      180.000 
0.00918868    0.0424264      135.000 
0.00702665    0.0670820      116.565 
 0.0240259    0.0300000     -90.0000 
 0.0138466    0.0900000      90.0000 
 0.0170458     0.120000      90.0000 
0.00218670     0.212132      81.8699 
 0.0114565     0.240000      90.0000 
0.00422966    0.0600000     -90.0000 
0.00745204    0.0948683      108.435 
 0.0199798    0.0670820     -63.4349 
0.000679552    0.0848528      135.000 
0.00810217     0.241868      97.1250 
0.000503169     0.276586      102.529 
0.00293583     0.379473      108.435 
0.00398255     0.390000      112.620 
0.00553058     0.150000      90.0000 
0.000170482     0.351141      109.983 
0.000966060     0.284605      108.435 
0.00247054     0.123693      104.036 
0.000139786     0.295466      113.962 
0.00224894     0.256320      110.556 
0.00492495     0.408044      107.103 
0.00189908     0.268328      116.565 
0.00146194     0.606712      98.5308 
7.74412e-05     0.228473      156.801 
0.000477489     0.256320      159.444 
0.00389194      1.10064      107.447 
0.000332283     0.283019      122.005 
0.000531934     0.429535      102.095 
0.000464565     0.636396      98.1301 
0.000317147     0.247386      165.964 
6.81885e-05     0.210000      90.0000 
0.000890626     0.632851      95.4403 
0.000182858     0.458912      101.310 
0.000217221     0.589406      104.744 
0.000176864     0.597746      107.526 
0.000378856     0.560446      105.524 
0.00320599     0.569210      108.435 
0.00133916     0.268328      153.435 
0.000461239     0.666108      97.7652 
0.000212102     0.700357      99.8658 
0.000201728     0.735459      101.768 
6.66882e-05     0.886397      113.962 
0.00100695     0.926121      114.905 
0.000299651     0.729931      99.4623 
0.000293020     0.189737      71.5651 
0.00194256      1.28825      117.759 
0.000599323     0.174929      59.0362 
5.47264e-05     0.771298      103.496 
0.000200597     0.308869      119.055 
0.000103295     0.662722      95.1944 
0.000364241     0.764853      101.310 
0.000142452    0.0670820      153.435 
0.000530927     0.295466      156.038 
0.00126494     0.150000      53.1301 
0.000288330     0.913893      113.199 
0.000171704     0.349857      120.964 
0.000411163     0.308869      150.945 
0.00104745     0.108167     -56.3099 
0.00170661      2.88453      116.565 
0.000391019     0.108167      146.310 
3.96614e-05     0.375899      118.610 
0.000278928     0.630714      92.7263 
0.000277041     0.391152      122.471 
7.30978e-05     0.800500      102.995 
0.000364846     0.953415      114.146 
0.000171482     0.579396      111.251 
0.000264244     0.660681      92.6026 
0.000155602     0.794292      100.886 
9.33019e-05     0.618466      112.834 
3.23424e-05     0.216333      56.3099 
0.000422478      1.32883      118.301 
0.00104084      2.30825      117.897 
3.04639e-05     0.234307      50.1944 
0.000572861     0.966075      115.769 
0.000161907     0.408044      126.027 
0.000138387     0.258070      54.4623 
5.58802e-05     0.630714      115.346 
0.000312783     0.751798      118.610 
0.000121926      2.32243      118.551 
0.000534232     0.632851      148.570 
0.000900468      4.21220      108.693 
2.57740e-05     0.424264      98.1301 
0.000166770     0.108167      56.3099 
0.000229912     0.630000      90.0000 
0.000311505      9.49276      111.701 
0.000821555      1.30250      118.926 
0.000136649     0.276586      49.3987 
4.81128e-05     0.421070      94.0856 
0.000831426      9.11260      115.131 
0.000233206      3.08709      124.308 
0.000474294    0.0948683     -71.5651 
0.000402773     0.342053     -15.2551 
0.000322741      9.71208      110.618 
0.000395326      1.49308      112.443 
0.000103566     0.420000      90.0000 
0.000440810      9.53174      111.801 
6.47641e-05      2.32573      120.203 
0.000565502      3.59562      116.779 
0.000363728      3.07950      125.083 
0.000195014      2.33094      121.849 
7.24951e-05     0.426380      129.289 
0.000258229     0.660000      90.0000 
0.000636199      10.5122      111.953 
0.000231930      1.54871      121.535 
0.000190271      3.83308      112.551 
0.000160272     0.284605      161.565 
0.000143630      4.02515      102.482 
0.000162983      9.84375      111.639 
0.000415163      2.84431      116.295 
7.19478e-05      9.96840      116.642 
0.000303249      10.8880      113.033 
4.99027e-05     0.421070      85.9144 
0.000272771     0.979490      117.350 
3.54490e-05      3.95693      107.199 
5.06748e-05     0.300000      36.8699 
0.000366090      2.34691      122.471 
0.000349334      10.1125      110.854 
0.000256733      9.98189      116.796 
0.000181227      3.93732      107.745 
0.000210049      9.67345      110.514 
0.000294382      4.01877      102.065 
0.000178560      9.11970      111.416 
2.93932e-05      11.0635      114.341 
0.000170817      11.0908      114.277 
0.000155773     0.658635      149.931 
0.000168832      9.35558      109.481 
2.91873e-05     0.324500      33.6901 
8.33877e-05      3.80539      112.724 
0.000179350      9.95512      116.874 
2.75593e-05     0.424264      81.8699 
8.16265e-05     0.660681      87.3974 
9.48014e-05      9.09990      114.960 
1.37017e-05     0.403609      131.987 
2.62711e-05     0.349857      30.9638 
2.62798e-05      9.94449      115.174 
1.29258e-05      10.1161      116.793 
! Tentative model.
! Flux (Jy) Radius (mas)  Theta (deg)  Major FWHM (mas)  Axial ratio   Phi (deg) T \
! Freq (Hz)     SpecIndex
0.000809163      6.63886      94.3193 
0.000364304      9.06521      125.934 
0.00100163      8.91679      122.264 
3.43943e-05      7.29032      113.611 
0.000557298      7.30865      113.549 
0.000417471      9.08141      125.860 
5.78451e-05      7.82084      110.196 
0.000173382      7.06612      116.202 
0.000148396      7.80208      110.247 
0.000205460     0.107703     -68.1986 
0.000162771      3.07376      124.931 
7.56670e-05     0.170880      159.444 
0.000167777     0.984886      119.168 
0.000191919      2.30825      117.897 
0.000148029      2.86217      116.565 
0.000137202      3.58670      116.851 
0.000124330      9.34343      109.637 
0.000296772      10.5253      111.983 
0.000220174      11.0899      114.393 
0.000220846     0.396989      130.914 
2.58282e-05      7.81396      110.058 
5.09911e-05      4.01323      102.374 
7.41014e-05      9.66995      110.459 
9.85995e-05      10.1250      116.768 
0.000261792     0.367151      29.3578 
4.97451e-05      3.81077      112.527 
2.53214e-05      11.0635      114.341 
4.93150e-05      1.53701      122.242 
0.000171754      10.1218      110.834 
0.000135722      9.88352      116.824 
2.50882e-05      5.33622      104.765 
9.67660e-05      9.10055      114.819 
2.49629e-05     0.252982      161.565 
4.89295e-05      3.92122      108.435 
4.86830e-05     0.640312      88.2101 
0.000104031      9.11406      111.498 
0.000234655      5.61263      103.392 
6.12087e-05      9.94024      115.121 
6.88120e-05      4.00899      102.095 
0.000172283      1.29769      118.540 
0.000177235      5.30830      106.865 
8.33418e-05      2.34691      122.471 
2.40139e-05     0.272029      162.897 
2.38875e-05      5.33115      104.558 
0.000247513      3.79231      112.643 
0.000783709      9.19826      103.069 
0.000296750      6.31256      126.107 
0.000341071      8.01381      101.955 
0.000389200      6.14052      118.819 
0.000403808      6.84234      96.3772 
0.000416054      6.32873      126.001 
0.000401718      7.99425      101.985 
0.000365622      6.75150      98.3461 
8.55645e-05      7.28233      113.467 
0.000114197      1.51539      112.504 
4.72727e-05     0.335261     -17.3540 
0.000143773      2.31672      117.229 
0.000189514      9.10675      111.381 
6.83219e-05      7.83275      110.008 
0.000109221      4.00250      102.995 
0.000149909      3.07883      124.413 
2.29009e-05      1.28016      118.968 
0.000242880      2.85328      116.206 
0.000148901      10.1518      116.817 
0.000215292      6.84459      96.5436 
0.000120708     0.101980     -78.6901 
6.25583e-05      9.85665      116.773 
4.25711e-05     0.992975      117.597 
0.000139538     0.329848     -14.0362 
0.000102666      9.70272      110.639 
2.20103e-05     0.655134      148.736 
2.18726e-05      9.52246      111.824 
8.07053e-05      3.98362      105.432 
0.000158499      9.10896      114.933 
4.25947e-05      7.84474      109.821 
0.000176861     0.672309      149.621 
6.23699e-05      1.00240      118.610 
7.93804e-05      6.15805      118.729 
8.29948e-05      9.86568      116.877 
0.000155552      9.38595      108.898 
8.02266e-05     0.266833      167.005 
4.02383e-05      1.54777      122.869 
5.90361e-05      7.85155      109.958 
2.03009e-05      11.0717      114.435 
3.87073e-05      1.52315      113.199 
3.80644e-05      3.90866      108.806 
5.79242e-05      4.00485      101.815 
1.99618e-05     0.272029      72.8973 
0.000112499      5.29502      107.135 
0.000159967      4.86148      114.034 
9.64981e-05      4.66039      117.335 
9.45176e-05      4.61268      111.894 
7.47737e-05     0.930591      81.3475 
3.73765e-05      7.07497      116.348 
9.38013e-05      9.90598      118.324 
0.000129817      9.09763      125.787 
7.42728e-05      10.5178      111.882 
3.78933e-05     0.975295      118.142 
1.89792e-05     0.286356      77.9052 
1.89709e-05      9.91413      118.168 
1.88459e-05      3.99249      104.802 
1.88355e-05      1.55872      123.486 
3.65916e-05      10.8802      112.936 
5.44677e-05      9.72849      110.708 
3.65609e-05      10.1609      116.918 
5.45108e-05      5.59317      103.440 
5.44539e-05      8.00969      101.815 
3.61185e-05     0.286356      167.905 
1.83456e-05      7.86356      109.771 
3.60412e-05      1.32484      118.887 
3.60280e-05      6.31699      125.854 
1.82747e-05     0.107703      68.1986 
3.59445e-05      4.00080      101.535 
3.58012e-05      3.29685      119.831 
3.57064e-05      9.89256      116.928 
1.79422e-05      1.53101      123.275 
1.79032e-05      2.69436      118.848 
1.77102e-05      2.35771      122.881 
