! Center RA: 12 21 31.69052,  Dec: +28 13 58.50019 (2000.0)
! Established model.
! Flux (Jy) Radius (mas)  Theta (deg)  Major FWHM (mas)  Axial ratio   Phi (deg) T \
! Freq (Hz)     SpecIndex
  0.127492      0.00000      0.00000 
 0.0661815    0.0202604     -90.0000 
 0.0146841    0.0202604      180.000 
 0.0103569    0.0286526     -135.000 
0.000534891    0.0397705      90.0000 
0.00401849    0.0600310      90.0000 
 0.0159639    0.0446338     -116.996 
 0.0199041    0.0802914      90.0000 
0.00168636    0.0828082      75.8378 
 0.0205103    0.0998015      90.0000 
 0.0153380    0.0633577     -108.650 
0.00473888    0.0600310     -90.0000 
0.00790089    0.0562440     -135.000 
0.00115137     0.101837      78.5245 
0.00414117     0.120062      90.0000 
0.000200016     0.121759      80.4216 
0.000355156     0.140322      90.0000 
0.00216879     0.200353      90.0000 
0.000438251     0.180093      90.0000 
0.00246923     0.219863      90.0000 
0.00276231     0.240124      90.0000 
0.000419863     0.220795      95.2649 
0.000743052     0.240977      94.8229 
0.000703749     0.259634      90.0000 
0.000115233     0.204262      101.227 
0.000733325     0.184432      102.453 
0.00152186     0.386554      111.285 
0.00109970    0.0828082     -104.162 
0.00178681     0.189835      108.435 
0.000179572     0.280627      85.8598 
0.00291932    0.0802914     -90.0000 
0.00185865     0.404795      110.283 
0.000921735    0.0633577      71.3505 
0.000523272     0.302778      82.4523 
0.000140021     0.411965      112.829 
0.000969939     0.304558      113.217 
0.000850694     0.286050      114.817 
0.000173187     0.319665      90.0000 
0.000499971    0.0286526      135.000 
0.000717606     0.295127      118.390 
0.000251271     0.466942      99.9013 
0.000159673     0.300155      90.0000 
8.13464e-05     0.486913      99.4914 
0.000465475     0.490508      101.740 
0.000533265     0.300838      86.1384 
0.000415480     0.322315      119.728 
0.000629025     0.509625      101.293 
0.000132042     0.526180      98.7772 
6.43140e-05    0.0633577      108.650 
0.000414342     0.332828      122.759 
0.000188946     0.529508      100.864 
0.000276203    0.0828082      104.162 
0.000407532     0.546212      98.4529 
0.000120116     0.455823      105.272 
0.000514148    0.0397705     -90.0000 
0.000268162     0.443026      108.466 
0.000595547     0.101837      101.476 
0.000819161     0.565518      98.1624 
0.000200180     0.461573      107.699 
0.000287330    0.0633577     -71.3505 
0.000288284     0.360880      123.723 
0.000664405     0.449587      110.825 
4.21029e-05     0.344213      125.596 
8.18062e-05     0.585580      97.8809 
0.000859084     0.583147      95.9087 
0.000190706     0.355922      128.150 
0.000383481     0.306099      78.6901 
0.000325961     0.467874      109.975 
0.00112563      1.15139      107.171 
0.000484118     0.873342      105.959 
0.00252997      7.14211      107.266 
0.00222845     0.887605      104.342 
0.000200667     0.372066      126.223 
0.000699092      1.17076      106.879 
0.00150859      3.21991      112.268 
0.000175855     0.368782      130.627 
0.000531079      2.73707      26.9303 
0.000187582      2.62439      147.755 
0.000105883     0.384386      128.660 
2.70562e-05    0.0828082     -75.8378 
0.000303994    0.0720098      56.4755 
0.000455120    0.0998015     -90.0000 
0.00162041      1.85802      104.334 
0.000145819    0.0848966      45.0000 
0.000235951      6.88030      113.288 
0.000904216      2.60791      147.526 
0.000194096      2.78632      140.837 
0.000261246     0.381773      132.849 
0.000530286      2.76392      26.1963 
0.00123494      2.89541      34.0237 
7.30946e-05     0.310708      75.0240 
0.00133183      6.88804      113.437 
0.000638377      6.53327      114.605 
0.000111971     0.329594      75.9005 
0.000302479      3.20187      112.400 
0.00109438      7.74796      110.868 
0.000311280      2.77064      140.572 
0.000443705      3.40212      92.0224 
0.000705976      7.51388      106.071 
0.000492580     0.381773      137.151 
0.000327662      4.91934      98.8890 
-0.000349685      2.17386      25.6275 
6.05003e-05     0.581411      93.9223 
0.000600872      2.78355      140.250 
0.000128158     0.334882      72.6613 
0.000226859     0.892839      105.601 
0.00104508      2.86253      116.565 
0.000528352      2.16911     -161.734 
0.000374294      2.71707      38.7216 
5.98564e-05      3.13451      95.4950 
8.03580e-05      2.82867      24.2125 
0.000699425     0.101837     -78.5245 
0.000854623     0.395830      135.000 
0.000283941      2.83896      23.6719 
0.000113322      8.98375      111.825 
0.000246667      4.77368      101.359 
9.15679e-05      3.15468      95.4597 
0.000204507     0.438632      114.241 
0.000506128     0.972963      170.545 
1.85278e-05      3.56662      146.664 
0.000856238      3.57779      146.393 
0.000472869      8.99130      111.945 
0.000360787      3.38070      91.3609 
8.33403e-05      4.77756      101.589 
0.000158891      3.15282      95.0932 
1.73097e-05     0.600651      91.9330 
-0.000774090      2.18237      26.0893 
7.87993e-05      8.67446      113.076 
6.19308e-05     0.947869      97.2769 
0.000413874      6.52486      114.443 
0.000479951      2.86775      22.9958 
0.000275057      2.57510      19.9874 
0.000915853      4.79667      101.542 
0.000551126      8.97320      111.992 
0.000118461      8.75018      111.169 
0.000103356      2.49309      138.258 
4.89203e-05      4.91625      98.6557 
2.91639e-05     0.600310      90.0000 
2.89647e-05      2.72979      39.0534 
1.47848e-05      8.65582      113.129 
0.000447051      2.19473     -161.398 
0.000591232      7.53263      106.030 
9.52946e-05      2.87999      116.391 
0.000709770      3.40147      91.6813 
2.79558e-05      1.16280      153.435 
0.000118031    0.0720098      33.5245 
0.000488806      8.10459      109.910 
0.000711222      8.74315      111.050 
0.000329926      2.47801      137.946 
0.00101325      3.90520      146.069 
3.93332e-05     0.945517      96.0590 
0.000110500      3.17225      95.0619 
0.000428906      1.17217      154.764 
0.000214857     0.107434     -68.2729 
6.55245e-05      2.87104      116.029 
0.000183134      6.20804      113.342 
2.60476e-05     0.600651      88.0670 
8.41377e-05      2.70188      38.9804 
0.000111729      2.54460      20.7063 
0.000237878     0.953723      170.352 
0.000400292      2.96054      89.2303 
1.23877e-05      2.88926      115.853 
3.54941e-05     0.601626      86.2097 
3.61738e-05      2.89878      115.318 
-0.000684672      7.32435      109.125 
0.000313075      2.99868      109.881 
8.17020e-05    0.0828082      14.1622 
0.000299732      2.91643      115.154 
0.000135379      2.49593      21.6287 
-0.00117372      7.09337      105.367 
4.24629e-05      3.59468      146.572 
0.000462512      1.52770      104.391 
0.000169044     0.121759     -80.4216 
0.000500355      1.84357      105.100 
-5.55017e-05      2.17796     -166.735 
0.000106337     0.344213      144.404 
0.000278844      2.72832      27.5024 
-0.000149670      3.33091      148.505 
8.32914e-05    0.0998015      0.00000 
4.18076e-05     0.603304      84.2894 
-0.000533737      1.42324      155.949 
0.000272799      6.52302      114.835 
-0.000568423      2.19768     -166.856 
0.000114561      6.21610      113.514 
1.06052e-05      7.67387      112.691 
2.04372e-05      1.18095      153.875 
4.00092e-05      2.55607      20.1426 
0.000223651      2.22044     -161.069 
1.03908e-05      8.76207      111.002 
0.000104912      3.19072      94.6674 
3.54550e-05      2.87130      116.913 
-0.000587430     0.959959     -178.791 
0.000227634      3.23867      112.132 
-0.000462717      3.31365      148.322 
0.000226746      3.06563      103.591 
9.85789e-06      7.65518      112.749 
0.000285138     0.933756      170.144 
-0.000599055      3.16606      30.7774 
2.90838e-05     0.141777     -98.2159 
0.000347200      2.82922      46.1498 
7.03391e-05     0.121759     -9.57842 
0.000544268     0.209153     -106.680 
7.51634e-05      7.66607      112.551 
-0.000221672      2.19136      26.5651 
2.60036e-05     0.605655      82.3819 
3.62188e-05      2.58391      39.9696 
0.000514217      2.92660      114.640 
0.000467372      1.18985      155.164 
8.99563e-06     0.332828      147.241 
8.67796e-05      2.24525     -160.760 
0.000267672      2.44990      137.967 
1.74125e-05     0.116465     -58.9729 
0.000203255      7.55210      105.988 
1.69894e-05     0.316312      71.6080 
-0.000127549      1.15406      117.915 
5.03109e-05      2.56842      40.2599 
0.000300902      4.80076      101.779 
2.43228e-05      2.54656      34.4346 
3.27511e-05      2.85325      117.097 
0.000233785      2.76800      139.982 
0.000120682      7.74077      110.728 
1.68049e-05      8.11151      110.044 
7.74143e-05      1.83839      104.490 
0.000349987      2.25201     -160.273 
1.65119e-05      2.88309      39.6566 
0.000149056      2.59084      147.286 
0.000182284      8.49103      109.972 
7.60794e-05      6.22421      113.685 
3.21281e-05      2.15586     -152.962 
4.66492e-05     0.128090     -51.1829 
0.000116477      8.12293      109.863 
3.88669e-05      2.47711      21.8014 
-0.000374612      1.13685      118.375 
-0.000280954      2.85902      17.9309 
1.60055e-05      6.53156      114.996 
0.000103855      2.55585      39.9262 
8.60774e-05      8.75483      110.878 
0.000169904      6.52249      115.230 
0.000199568      1.23980     -179.064 
2.28875e-05      2.18247     -152.721 
6.43590e-05     0.608549      80.5609 
0.000193138      1.20858      102.405 
4.30373e-05      4.63974      99.1759 
4.18572e-05     0.323277      68.1986 
5.14696e-05      6.53121      113.266 
-0.000350936      8.50100      113.426 
-0.000261419      7.30521      109.178 
4.77284e-05      2.56825      19.5626 
0.000244205     0.913801      169.927 
7.45248e-06     0.126477     -18.3275 
0.000117405      7.57158      105.945 
8.04860e-05      2.16515     -152.485 
9.82288e-05      2.94029      89.2250 
0.000158489      7.48819      108.050 
2.14485e-05     0.141777     -8.21587 
-0.000190873      3.28408      103.020 
7.23584e-06      2.89607      39.9652 
6.02367e-05      3.21017      94.6391 
7.10902e-06     0.128090     -38.8171 
0.000135829      6.54216      113.039 
8.99955e-05      7.65833      112.411 
2.03006e-05      2.91162      39.7091 
-0.000114591      3.20021      88.9252 
-3.84605e-05      7.90272      110.133 
-0.000141067      2.60208      135.000 
8.28303e-05     0.145849     -15.8239 
6.56790e-05      2.54290      39.5761 
9.44609e-05      8.01461      111.826 
-5.86457e-05      7.87071      112.719 
4.37391e-05      3.13097      117.382 
7.47007e-05      4.82060      101.730 
4.34931e-05      4.63666      98.9379 
-1.29764e-05      8.49326      113.306 
0.000111066      7.72252      110.779 
1.93379e-05      8.70582      112.560 
-9.89873e-05      7.45382      112.230 
3.09767e-05      6.23207      113.849 
3.07230e-05      2.97964      110.014 
4.39142e-05      7.59034      105.905 
1.88825e-05      8.89246      112.757 
3.65289e-05      2.71984      28.0781 
6.34594e-06      8.71680      112.386 
-2.45074e-05      2.20049      27.0369 
-7.29714e-05      7.87855      112.855 
-6.67068e-05      2.67522      118.096 
-5.48489e-05      1.58418      114.635 
5.43632e-05      2.53004      39.2225 
1.81386e-05      4.79027      96.4760 
7.23504e-05      2.25867     -159.807 
4.22688e-05      6.53083      115.384 
1.22131e-05     0.627803      80.8529 
1.82485e-05      8.72454      112.509 
5.40361e-05      8.86623      112.691 
4.79354e-05      1.20827      155.568 
4.19103e-05      7.60983      105.863 
2.39472e-05      2.85990      22.6222 
1.19670e-05      8.66380      113.252 
4.16261e-05      3.06227      34.6286 
2.96463e-05      1.22366      101.317 
-0.000891071      3.81039     -117.504 
0.000826096      8.46157      58.8262 
-0.000619823      10.0769     -121.197 
-0.000684926      7.17417     -57.6414 
0.000366504      9.10404      143.304 
-0.000496890      12.3256      141.456 
-0.000337184      9.89105     -2.66553 
-0.000595099      4.43100     -112.282 
-0.000339698      11.3473      118.416 
-0.000289970      3.69853      29.4724 
0.000280045      11.3847      147.481 
-0.000377046      12.9369      138.574 
-0.000382756      13.6764     -44.4665 
-0.000168938      6.93822      161.512 
0.000313916      9.32867      8.75387 
0.000219047      8.61599      31.3283 
-0.000656974      11.7171      52.2113 
-0.000359224      9.57761      52.1254 
-0.000409847      6.12773     -152.600 
-0.000258194      1.11107     -30.2537 
0.000358094      12.3555     -50.2532 
-0.000354470      3.04885      72.0377 
0.000159514      11.1895      62.8868 
0.000601126      10.5773     -74.6515 
0.000404005      10.9617      134.040 
0.000255054      13.1057      47.2252 
-0.000249917      6.94443      161.359 
0.000298581     0.903572     -62.2858 
0.000302076      10.4229     -34.2083 
-5.47222e-05      11.7176      50.3316 
-0.000156443      7.17631     -118.280 
0.000249677      9.08840      143.230 
0.000149573      6.76603     -177.629 
-0.000152389      10.0874     -121.296 
0.000194046      3.18245     -103.083 
-0.000389119      8.00463      14.7671 
5.29941e-05      4.84818     -116.462 
-0.000343749      9.10081      3.90521 
0.000198283      12.5633      50.6839 
0.000243010      4.02478     -10.3106 
-0.000149783      11.9694      36.0279 
-0.000371136      11.7156      50.1944 
5.26101e-05      10.6830     -54.5259 
-0.000242879      3.68090      29.6275 
0.000148878      5.61842     -164.729 
5.21304e-05      6.54250     -172.096 
-0.000291575      9.19959     -111.826 
0.000336362      11.5602     -118.074 
0.000100937      11.9641      135.000 
-0.000195837      9.85691      86.6264 
0.000194500      11.7812     -134.381 
-0.000196249      9.95480     -40.7634 
-5.13978e-05      10.7363      64.8660 
0.000146019      8.27650     -25.0153 
0.000195723      10.6947     -54.4376 
0.000147881      4.71122     -23.5149 
-0.000189601      3.91747     -134.790 
9.55792e-05      4.86565     -116.360 
-0.000141777      10.7277      64.9640 
-0.000189396      7.49900     -67.7440 
-0.000142144      11.0234      141.778 
9.50742e-05      4.47967      169.196 
0.000141671      5.16434     -2.44001 
-0.000140541      7.56060     -123.561 
-9.34756e-05      5.70006     -118.272 
0.000232582      11.2988     -154.522 
-0.000186215      13.6903     -44.4093 
9.44147e-05      13.6048      135.237 
0.000186277      6.92759      174.867 
-4.73711e-05      10.7445      131.075 
4.72181e-05      8.63330      31.2584 
9.24462e-05      11.3573      147.514 
4.69835e-05      5.48947      157.733 
4.69419e-05      11.9784      134.931 
-9.19257e-05      11.2586     -65.4369 
9.17491e-05      2.37756     -132.954 
-9.15368e-05      11.4800     -53.4305 
-9.17959e-05      10.8323     -51.5224 
-9.18452e-05      11.4873     -149.329 
9.06903e-05      10.4169     -161.181 
-0.000136331      10.6092      46.2208 
-4.63407e-05      11.8404      43.5620 
-4.62770e-05      14.1292      44.3696 
-4.61795e-05      9.60428     -175.941 
-4.60885e-05      6.39870      96.2816 
-9.03863e-05      11.3565      49.0698 
-4.58490e-05      9.49302     -71.8300 
-4.57129e-05      6.93259      165.123 
4.55589e-05      9.40503      141.303 
-4.55584e-05      5.68209     -138.566 
4.54433e-05      4.68486     -23.3950 
8.99339e-05      7.83222     -164.297 
4.49987e-05      3.98640     -159.747 
4.48627e-05      10.6665     -54.4628 
-4.47044e-05      14.0713      44.7126 
-4.45496e-05      6.41809      96.2625 
-4.44558e-05      7.51706     -67.8003 
-4.41485e-05      12.9515      138.631 
0.00159643      12.4041     -44.0196 
-0.000526212      8.84773     -104.133 
-0.000215579      8.62722      2.39279 
0.00141849      13.6914      134.054 
0.000296108      2.83704     -114.586 
-0.000328913      8.60772      2.39821 
-0.000156657      12.4320      53.2401 
-5.26472e-05      7.14205      134.659 
0.000277271      1.82471     -133.667 
0.000101335      8.85227     -87.0214 
5.12549e-05      3.37932     -106.499 
0.000221812      11.0325      43.9721 
-0.000422010      7.70626     -158.697 
-0.000267642      8.83707      69.1843 
0.000138020      13.2319      140.703 
0.000574214      13.6472      135.178 
-0.000354244      11.5106     -41.0563 
-0.000136264      7.17017      134.665 
0.000174260      8.67095     -46.2132 
0.000175501      3.36574     -106.928 
-0.000307983      10.9034      134.925 
0.000215808      8.85334     -86.8905 
4.77448e-05      7.02775      174.940 
0.000225663      11.6235     -118.243 
-0.000178799      7.72514     -158.752 
-0.000697419      12.4482      53.2959 
0.000250889      7.94645      50.8214 
0.000263428      6.84188     -7.72753 
0.000942288      13.2040      140.717 
0.000207887      2.55183     -111.132 
0.000204755      5.35919     -27.8101 
0.000217610      7.00757      174.926 
0.000925808      9.23943      116.896 
-8.64107e-05      7.87660      12.1653 
-0.000158159      5.72582     -50.5252 
-0.000506845      11.1831     -148.156 
4.38897e-05      10.5797     -165.437 
-8.24500e-05      1.80179     -98.9367 
0.000124055      6.64592     -56.7890 
-0.000122705      10.8145      131.174 
0.000400676      10.5624     -162.251 
0.000123401      8.12388     -29.6576 
8.35950e-05      9.38473      169.934 
-4.26776e-05      11.2118     -41.1657 
0.000228578      9.40652      28.5809 
8.17500e-05      7.08020     -8.61274 
-0.000188967      12.8502      132.854 
-4.20983e-05      1.84874     -95.5903 
0.000264623      3.80148     -71.2789 
-0.000120963      10.4533     -150.295 
0.000151573      9.98939     -148.094 
0.000525643      2.81931     -114.751 
-4.13124e-05      8.85251     -104.255 
0.000427758      11.6140     -118.155 
0.000662069      9.39174     -26.2928 
-0.000183651      9.82445      143.526 
-0.000187299      9.40789     -106.930 
-0.000205654      6.93410     -99.4613 
0.000184666      8.45867      23.1078 
-4.05380e-05      10.5148     -16.9193 
-0.000117509      4.03167     -46.4027 
-7.71656e-05      1.86706     -94.9109 
0.000253802      6.82255     -7.74956 
-3.95749e-05      7.55626     -60.8564 
0.000216188      10.9338     -67.7510 
0.000146447      7.07877      175.787 
-0.000241593      10.7121     -151.571 
-3.93760e-05      9.46488     -19.8888 
-3.92569e-05      11.2398     -41.1780 
-0.000582209      10.5089     -16.8137 
-0.000544992      10.0266      100.456 
3.89137e-05      2.13573     -135.384 
-3.88875e-05      11.7281      50.1212 
-3.88473e-05      10.5881      164.440 
-3.87579e-05      7.87251      12.0265 
0.000483410      9.38816      169.816 
0.000277785      4.21971      172.099 
0.000303839      8.98666      124.116 
-0.000108609      5.99351      27.4184 
7.44503e-05      10.2472      65.4356 
9.51562e-05      9.86114     -30.4658 
0.000234898      11.2889     -154.389 
-0.000141767      12.7261      37.9132 
7.34110e-05      3.20273     -96.8087 
0.000656082      13.2525      49.6528 
0.000260159      10.3753      153.187 
-0.000138804      9.43894     -19.8150 
-3.70813e-05      11.7255      49.9818 
-0.000256605      9.39226     -62.6161 
3.69252e-05      9.61160      79.8148 
-3.68932e-05      10.4986     -150.309 
-7.14304e-05      8.46071     0.813084 
-7.09513e-05      7.48024     -99.3877 
-0.000319074      11.4959     -41.1201 
3.66968e-05      9.68911      177.514 
6.98989e-05      10.4863      154.950 
-0.000129058      10.3545     -150.366 
0.000100731      4.66304      69.9350 
-3.64864e-05      10.9354     -51.0105 
0.000101732      6.97807      64.5372 
-7.04542e-05      12.6981      37.8999 
0.000361382      5.08193     -25.1574 
7.06216e-05      9.26582     -24.0741 
3.62178e-05      9.21254      116.845 
-3.61777e-05      7.85343      12.0561 
-0.000338108      11.7125      50.0577 
-0.000224992      13.7333     -44.2340 
0.000168490      9.63080      79.8353 
-0.000404026      6.51023      160.065 
-0.000304274      9.35247     -73.3505 
-3.56530e-05      7.43887     -68.0537 
-0.000157714      8.60856      2.52795 
-3.54738e-05      4.05980     -46.4005 
0.000545923      10.0829     -115.242 
-3.53831e-05      10.8825     -51.1915 
-9.60381e-05      10.6358     -135.763 
6.89272e-05      13.6677      48.1423 
-0.000149021      10.9353     -149.684 
0.000355881      10.2214      67.4487 
-3.49170e-05      6.76167     -48.9552 
0.000271308      7.62729      40.9590 
0.000100080      9.29909      107.265 
-3.46276e-05      8.84402      69.0661 
3.44791e-05      10.4513     -119.460 
-0.000100615      5.99645     -76.8941 
9.96598e-05      3.21986     -96.4228 
6.69292e-05      9.70849      177.639 
-0.000120994      7.44618     -67.9145 
3.40556e-05      13.4635      135.000 
6.51615e-05      10.2657      65.4826 
-6.49180e-05      8.17626     -33.2234 
0.000306518      7.20637     -51.7613 
0.000271472      11.7910      119.913 
3.36368e-05      2.12135     -135.000 
-0.000378754      11.8554     -139.240 
0.000194317      7.48132     -175.709 
3.35672e-05      7.08315     -8.76878 
0.000341555      11.4945     -27.2342 
-3.31921e-05      10.9226     -51.0931 
-0.000147155      9.95720      138.174 
0.000179361      6.82531     -7.91808 
3.30075e-05      8.14150     -29.5870 
-0.000203622      10.7347     -135.830 
-3.28990e-05      4.04637     -46.6005 
0.000149351      3.80779     -71.0009 
6.29021e-05      13.4773      135.059 
-9.49902e-05      8.47085      17.0240 
-0.000244910      9.45800     -19.7734 
-9.43991e-05      12.8887     -41.8565 
9.37815e-05      7.07731      175.951 
-9.61316e-05      12.7386      37.9851 
-0.000114992      6.52897      146.115 
9.33481e-05      8.42791     -25.2896 
0.000261586      10.4414     -119.363 
-0.000210577      7.55391      93.4911 
-3.23452e-05      13.7193     -44.2909 
-3.23241e-05      9.67318     -121.816 
0.000590451      13.9117     -132.845 
-0.000338399      11.6970     -54.8153 
-0.000115569      10.8698     -51.2747 
8.86916e-05      2.38988     -134.669 
-3.19433e-05      7.82762     -62.4548 
6.01048e-05      11.0471      43.8991 
-6.21182e-05      10.6943     -151.520 
6.06103e-05      7.70373     -173.888 
0.000514561      10.9415     -67.6528 
-0.000399147      5.99206     -77.0758 
-0.000200254      8.42865     -92.5819 
-3.14024e-05      8.86949      68.9889 
-0.000271220      6.45356      128.077 
-3.12067e-05      6.52308      145.873 
8.91078e-05      9.42365      28.5242 
0.000147901      9.72799      177.644 
0.000109479      8.47731      23.0541 
-3.09548e-05      10.7522     -18.0973 
0.000158356      4.14240     -166.027 
8.37982e-05      13.5253      46.5579 
0.000262909      9.43560      46.4597 
8.56990e-05      10.5732     -115.789 
-3.07303e-05      10.0788     -86.4742 
-3.06353e-05      10.5252     -150.269 
3.05887e-05      8.04253      76.4837 
-3.05922e-05      12.7101      37.9693 
-0.000158045      8.45220      17.0627 
-0.000635880      8.44595     -85.5158 
-3.05046e-05      12.1299      52.1667 
-0.000189695      9.42858     -62.4581 
0.000112340      3.22210     -96.7675 
3.03860e-05      13.6396      48.1510 
0.000372988      4.21698      172.372 
0.000140136      9.63439      79.7167 
8.82245e-05      10.2401      67.4922 
-0.000115010      10.3667      169.102 
3.02532e-05      9.99217      22.9720 
-0.000141225      12.7511      38.0569 
-3.00854e-05      8.96540      1.91858 
0.000133655      12.9943      142.001 
0.000686136      11.6044     -118.066 
-0.000251245      9.55253     -116.887 
-2.98959e-05      12.8782      132.861 
-0.000105623      8.65017      2.78447 
-5.72815e-05      9.68387     -121.918 
-2.95967e-05      10.0844     -91.7056 
7.45265e-05      9.55601      167.796 
-2.95527e-05      8.55083      132.347 
-0.000217207      10.3269     -150.408 
0.000137429      6.95107      64.6162 
-2.94444e-05      12.1450      48.6722 
-2.94359e-05      8.37781      96.7176 
-2.93874e-05      9.40469      135.433 
0.000283517      9.98457      22.8690 
-0.000181933      9.81242      143.621 
-2.93375e-05      9.41381     -107.048 
2.93095e-05      10.5046      154.996 
-0.000112268      11.3942      137.349 
0.000437168      9.70051      30.4788 
2.92934e-05      9.22137      116.953 
0.000659973      12.7000     -128.349 
-5.65772e-05      5.56987      23.7125 
-0.000207723      12.9168     -41.8610 
-5.62125e-05      8.75061     -101.335 
0.000258670      8.04729      76.3434 
0.000156482      13.5015      139.325 
5.60154e-05      9.28357     -23.0855 
-0.000238379      11.0613     -31.0178 
8.41432e-05      13.4999      49.2060 
0.000135100      6.80247     -7.77257 
-0.000372228      8.56581      132.255 
8.09904e-05      4.19764      172.336 
-0.000344287      13.7759     -44.1746 
-0.000282885      12.6697      37.8839 
-7.88038e-05      9.25912     -117.670 
-2.84833e-05      8.46669      159.681 
-2.84952e-05      11.1773      123.319 
0.000262999      12.7447     -136.081 
-0.000135621      10.0911     -152.368 
-8.16096e-05      11.3438     -144.545 
7.85588e-05      5.43990     -25.2466 
7.94682e-05      7.09752      175.962 
0.000432489      10.9879      127.307 
-4.76845e-05      8.56945     -58.1637 
5.49749e-05      9.60574      94.1797 
8.01783e-05      9.27974      107.302 
5.37102e-05      10.5439     -162.219 
-0.000198103      8.65114      2.91353 
0.000157906      10.3841      153.091 
-5.52523e-05      7.97876     -64.1386 
0.000122467      11.4565      149.001 
-5.31507e-05      9.17178     -70.7734 
-7.94602e-05      11.9253     -53.9384 
-9.40359e-05      12.9110      42.3642 
-2.77441e-05      9.40911     -46.8097 
0.000222606      7.14820      154.654 
0.000231815      12.2828     -133.022 
-0.000142090      13.7614     -44.2334 
7.71674e-05      10.1187     -31.5861 
-0.000127433      11.4086      144.776 
2.75198e-05      9.76767      177.772 
-2.74307e-05      9.46531     -62.2973 
0.000357289      10.6859      16.9767 
-2.73997e-05      11.6764     -143.288 
0.000215620      12.6678     -47.3670 
0.000554280      11.8012      119.998 
-2.70779e-05      9.29193      135.612 
-2.70495e-05      9.11390     -124.178 
-5.31401e-05      9.22496     -111.893 
0.000340278      11.3072     -154.433 
5.22545e-05      10.7760     -32.1839 
-2.69994e-05      11.1604      123.376 
5.07991e-05      10.1805     -67.7186 
0.000129978      13.4867      49.2711 
0.000250166      12.8582     -48.9729 
2.67491e-05      8.95852      124.081 
0.000103747      13.6333     -135.000 
0.000245074      9.80667      177.895 
0.000121241      8.07028     -151.910 
-9.29455e-05      8.57976     -58.0530 
-2.65507e-05      11.7239     -58.5318 
2.63748e-05      13.5387      46.4979 
2.61969e-05      10.4949      154.849 
-0.000234036      11.3793      137.280 
2.60620e-05      11.4122      36.9498 
4.56957e-05      10.0049     -130.218 
-2.59424e-05      12.6822      37.9562 
7.54182e-05      10.9234     -67.6139 
-2.59093e-05      5.84787     -145.170 
-4.77432e-05      8.73074     -101.361 
-0.000214393      11.6976      49.9963 
-7.37660e-05      9.81212     -63.4879 
0.000139522      6.80524     -7.94158 
7.51711e-05      11.5021      151.206 
-4.97318e-05      7.48213     -156.863 
0.000146364      2.81088     -114.376 
0.000163623      11.5072     -118.214 
0.000360016      13.2394      49.7196 
4.94647e-05      9.60428      94.0591 
-2.54881e-05      12.5880      134.099 
-0.000264039      8.64712     -84.0277 
-0.000138367      7.96121     -64.0774 
-0.000398597      8.40841     -92.5882 
4.97989e-05      9.67166      177.154 
-0.000157333      11.3273     -144.485 
-7.24275e-05      12.8966      42.4226 
0.000141183      10.4138     -119.321 
-2.51599e-05      11.1334      123.347 
0.000136575      13.8758     -133.891 
9.47923e-05      13.6616      135.238 
2.49982e-05      4.06690     -160.759 
-0.000136409      13.0143      41.0116 
-4.87256e-05      3.69394     -26.0133 
0.000116406      11.4000      36.8684 
2.49984e-05      8.95942      77.8892 
-4.86011e-05      6.08726     -111.590 
-4.80032e-05      10.8179     -142.134 
-6.71338e-05      10.3476      169.081 
0.000143881      13.4739      49.3340 
4.82528e-05      10.0988     -120.069 
-0.000152738      11.7317      144.576 
-0.000175430      10.1090     -152.421 
4.41880e-05      7.39071      49.4965 
0.000184450      13.6471     -135.058 
4.77616e-05      11.4575      153.344 
9.35273e-05      10.1213     -100.245 
-6.89718e-05      12.7631      38.1258 
2.45061e-05      11.1544      118.953 
-4.82533e-05      11.1053      123.317 
2.45046e-05      10.6157     -30.5748 
4.66408e-05      9.14662      66.6866 
6.99825e-05      10.5647     -115.693 
2.44745e-05      10.2479      67.3876 
0.000154051      7.65587      40.9741 
-4.47709e-05      5.58842      23.6289 
0.000116627      10.4022      153.141 
7.09428e-05      9.45113      28.5734 
9.30099e-05      9.42103      55.0289 
-2.42903e-05      8.66909     -101.985 
-0.000109553      9.16513     -70.8930 
-9.35484e-05      12.3048      134.209 
-2.42224e-05      9.36236      135.520 
0.000219851      11.1450      118.865 
4.72317e-05      10.2292      67.3439 
-0.000385719      11.0787     -30.9638 
2.40142e-05      6.79993      64.9422 
-4.68248e-05      8.88960     -77.5252 
-2.39406e-05      10.7040     -151.424 
2.39371e-05      10.0060     -148.153 
-0.000178652      9.17721      63.3218 
0.000105345      12.8531     -47.5222 
4.56876e-05      9.72133      171.719 
-0.000152089      9.41957     -62.5633 
0.000133506      9.67265      177.038 
-0.000129359      12.2753      45.3963 
0.000133223      11.4843      151.157 
-0.000132315      11.2003     -148.211 
-2.36648e-05      9.23253     -112.010 
9.10616e-05      12.2819     -133.151 
4.49480e-05      9.36822      169.794 
6.54855e-05      7.75031      97.7119 
-4.65052e-05      12.4174      140.490 
2.35376e-05      10.5132      154.896 
6.75931e-05      8.83254      65.2334 
4.57682e-05      12.5860      137.641 
-2.34884e-05      1.60095      87.8511 
-2.34540e-05      10.0776     -86.5849 
-0.000148599      11.6853     -54.8965 
-2.34022e-05      9.97230      138.252 
-4.55928e-05      11.8388      129.310 
-0.000150894      12.9319     -41.8011 
0.000107951      11.5035     -27.3206 
-2.32589e-05      10.2674      121.863 
6.52732e-05      2.45351      119.278 
-0.000128367      9.23212     -117.621 
0.000149308      11.7392     -134.171 
-6.67647e-05      10.7083     -127.105 
-8.81077e-05      11.0502      123.258 
-0.000166697      7.47419     -157.005 
-0.000295476      10.8095     -160.995 
-0.000269502      9.82118     -63.3821 
0.000340728      13.4608      49.3994 
0.000171256      10.0890     -119.973 
6.57833e-05      6.92441      64.6902 
-0.000187725      12.7640     -126.656 
2.28440e-05      10.2633      67.1826 
2.28187e-05      2.78409     -114.168 
-0.000147770      10.2840      121.806 
-0.000106341      1.62120      87.8779 
-6.60634e-05      9.78409      143.646 
6.67216e-05      10.0746     -115.141 
-4.48126e-05      6.44268      173.406 
-2.25837e-05      3.71215     -25.8761 
6.30970e-05      8.94390      77.7350 
-0.000229628      12.6543      37.9382 
-0.000104349      8.70894      83.9362 
-2.26109e-05      6.54580      146.213 
0.000126592      9.61683      22.8857 
2.24873e-05      7.37114     -74.4159 
4.40884e-05      10.2712      67.0784 
-4.37443e-05      9.23369     -112.676 
-0.000123724      8.06670     -124.598 
0.000109589      2.77616     -113.801 
8.45713e-05      10.8076     -38.3125 
-4.39187e-05      10.5283     -16.7818 
-8.50121e-05      12.8830      42.3561 
-0.000188470      12.3193      134.144 
-6.42791e-05      12.4324      140.547 
4.21157e-05      5.42158     -25.3379 
6.23986e-05      6.73121      38.6049 
-0.000102962      8.88383      68.7495 
2.22156e-05      10.0915     -31.5461 
-2.21898e-05      11.4085     -139.693 
0.000289733      10.4114      153.042 
6.48635e-05      10.8784      120.007 
-8.25172e-05      7.09148     -66.0387 
6.43259e-05      9.46893      28.5148 
0.000124219      10.9724      127.369 
-4.32053e-05      8.64511     -84.1563 
8.41296e-05      10.2788      66.9783 
0.000287030      9.82692      177.899 
-8.15272e-05      6.09474     -111.767 
-2.19106e-05      9.35829     -73.2317 
0.000103166      8.08816     -151.978 
-2.18900e-05      11.3927      144.720 
0.000141507      10.1541     -67.7811 
-2.18075e-05      10.1054      61.2520 
-8.21493e-05      9.09601     -109.393 
2.17786e-05      9.44957      46.3707 
4.20767e-05      12.6433     -134.870 
-6.36357e-05      8.95565     -112.728 
-0.000122005      10.9821     -128.792 
6.18406e-05      9.43266      54.9281 
8.24084e-05      10.1447     -100.333 
-0.000122334      11.6695      50.0057 
-0.000143743      5.98756     -77.2648 
0.000102802      12.5842      137.513 
-0.000102825      6.46280      173.426 
2.15789e-05      10.7925     -32.1287 
4.16415e-05      6.60197     -172.167 
0.000142639      11.4894     -118.262 
4.19862e-05      7.19047     -51.6614 
6.14949e-05      9.12870      66.6381 
-6.20834e-05      11.3108     -144.426 
0.000101397      10.0565      56.0265 
-0.000102939      10.1325      61.2104 
-2.13266e-05      12.2729     -53.6156 
-8.14426e-05      8.89383     -77.4025 
-4.22762e-05      11.9765      36.2388 
6.18967e-05      10.8904      24.8716 
2.13046e-05      11.1170      120.486 
0.000101672      9.03368     -26.8481 
-4.21573e-05      11.0772      123.287 
-4.19286e-05      10.0186     -103.038 
-4.18147e-05      11.8512      129.383 
0.000123738      2.74142     -113.197 
-2.11111e-05      3.70336     -25.5941 
-4.05981e-05      9.07234     -74.9224 
2.10575e-05      7.58085      4.23472 
-6.06455e-05      9.85865      60.7328 
-6.12318e-05      9.55031     -18.8165 
8.12338e-05      11.3883      36.7899 
-2.09723e-05      10.5227     -16.6801 
2.09158e-05      10.5735     -115.548 
0.000159406      14.3408     -135.564 
4.08240e-05      13.6754      135.296 
2.08355e-05      3.24392     -78.6199 
-2.07812e-05      11.5849      50.0424 
-7.98282e-05      7.43859     -8.34671 
0.000119240      10.9051      120.044 
4.09685e-05      9.46425      46.4553 
6.07196e-05      13.8617     -133.947 
-4.00534e-05      8.64829      2.51633 
-0.000100874      10.3536     -71.1803 
2.06660e-05      8.84642      59.7222 
-8.01312e-05      9.76839      143.578 
-0.000139178      11.9645      36.1605 
-4.01207e-05      9.23836     -113.068 
-2.05665e-05      8.71162     -101.386 
7.95756e-05      12.6965     -47.3616 
7.92750e-05      11.5119      151.118 
-4.03693e-05      11.6390      135.347 
5.96453e-05      12.1927     -56.7794 
-5.98617e-05      7.03016      116.710 
7.90935e-05      12.5947      50.8007 
-5.93000e-05      11.5004     -140.080 
5.93203e-05      10.5648     -115.449 
-4.01767e-05      12.6018      35.9617 
-0.000118583      10.2550     -83.0570 
-0.000118434      13.8612      45.9344 
-5.91879e-05      5.18677      105.430 
-7.88631e-05      10.5033     -16.7118 
5.89023e-05      11.8109      120.080 
9.83901e-05      13.7050      134.113 
-3.97605e-05      11.3644      137.210 
3.94132e-05      6.78518     -7.96522 
-7.85885e-05      13.6434      137.258 
2.01181e-05      9.49539      28.5620 
3.98331e-05      10.7349      135.680 
-5.90852e-05      11.0391      123.170 
-2.00591e-05      11.8421     -139.314 
-2.00257e-05      4.77602     -111.619 
-1.99914e-05      8.94785     -112.608 
-1.99666e-05      11.2169     -148.263 
5.92335e-05      13.2240      49.6628 
1.99362e-05      9.84278      67.2901 
1.99332e-05      10.5032      154.753 
-3.95307e-05      10.0376     -103.013 
3.94899e-05      9.51319      28.5037 
0.000117164      13.4476      49.4649 
-1.99970e-05      10.1746     -86.9561 
9.80888e-05      2.73379     -112.821 
-0.000122134      13.0010      40.9442 
3.92348e-05      9.23868     -12.5010 
-7.81474e-05      13.2355     -41.3247 
3.90523e-05      7.63694     -41.4947 
1.98111e-05      13.5147      139.260 
-1.98324e-05      12.2519     -53.4298 
-3.92882e-05      9.41025     -62.6728 
-5.84894e-05      12.8549      42.3527 
-7.77670e-05      12.4361      53.3707 
-3.90248e-05      10.6812      21.7603 
3.91590e-05      8.50620     -49.0062 
1.97308e-05      7.16651      154.723 
-1.96756e-05      9.18599      63.2131 
-3.88860e-05      11.9653      135.813 
-3.91265e-05      10.1698      61.0653 
1.96740e-05      9.65424      176.912 
-1.96561e-05      11.4165     -53.6905 
1.96254e-05      10.2681      66.8300 
1.96254e-05      7.67061      40.8785 
-3.87933e-05      12.7159      128.293 
3.88960e-05      10.0620     -119.928 
-1.95610e-05      12.3335      134.211 
-7.79736e-05      1.62057      88.5938 
-5.80190e-05      10.8724      112.840 
-1.95046e-05      10.4295      62.8468 
-1.94922e-05      10.5598     -143.239 
-3.86275e-05      10.3601     -71.0742 
-3.85601e-05      9.97915      123.309 
-1.93871e-05      9.20478     -117.568 
-1.93716e-05      3.72164     -25.4594 
1.93115e-05      12.6184     -43.5880 
-1.93047e-05      6.46060      173.598 
-1.93072e-05      10.4768      143.851 
-1.92815e-05      11.8355      129.446 
-1.92917e-05      10.4386      62.9929 
1.92511e-05      9.32838      177.543 
1.92325e-05      13.7458     -45.0000 
1.92807e-05      10.1639     -100.314 
-5.95542e-05      13.3395     -43.7236 
-1.91998e-05      11.6534      135.417 
-1.92241e-05      10.4139      133.131 
1.91897e-05      11.7534     -134.242 
1.91852e-05      12.4187     -43.9546 
1.91891e-05      11.4798     -118.173 
1.91977e-05      4.05652     -150.780 
-0.000109233      11.2668     -65.3467 
-8.83502e-05      13.3249     -43.7838 
-8.62690e-05      11.9372     -143.860 
0.000104559      11.1916      57.7026 
0.000103316      9.97849      73.3462 
-4.20261e-05      9.31950     -73.1598 
4.18640e-05      11.6741      54.9748 
6.15496e-05      10.1075     -19.2959 
-6.12854e-05      10.7238     -127.042 
6.06728e-05      9.01560     -26.9063 
-6.08716e-05      9.98743      138.329 
-4.03304e-05      9.03014     -97.1268 
4.02312e-05      10.0032      22.8239 
4.01466e-05      10.0743     -31.6064 
2.03496e-05      12.4245     -50.1577 
2.03176e-05      11.4666      148.918 
-2.02348e-05      11.2742     -136.222 
2.01867e-05      12.9789      128.052 
3.97100e-05      9.20428     -12.6778 
-3.96723e-05      10.4287      133.055 
2.01315e-05      9.93853      67.7688 
2.01114e-05      10.0289     -80.1254 
-2.00468e-05      13.0688     -44.2556 
2.00292e-05      7.41879      49.4836 
-3.94775e-05      10.8351      141.670 
-1.99749e-05      9.33890     -73.1958 
1.99217e-05      6.64607      87.5863 
-1.98224e-05      9.07763     -74.7989 
1.97949e-05      9.07529     -146.870 
-1.97740e-05      10.5574      132.848 
1.97162e-05      3.85942      139.621 
1.97216e-05      13.8979     -132.784 
1.97123e-05      12.2257      55.8671 
1.96609e-05      12.2547     -133.015 
-1.96063e-05      9.87568      60.7881 
1.95970e-05      12.4115     -50.2295 
1.95670e-05      11.3294      147.546 
1.95420e-05      9.62374      94.0509 
-1.95196e-05      9.34870      135.605 
-1.95214e-05      7.53368      93.5005 
1.94855e-05      8.05210      76.2033 
1.94723e-05      9.77469     -104.575 
-1.94020e-05      12.2434     -145.583 
! Tentative model.
! Flux (Jy) Radius (mas)  Theta (deg)  Major FWHM (mas)  Axial ratio   Phi (deg) T \
! Freq (Hz)     SpecIndex
-2.06352e-05      13.3249     -43.7837 
