! Center RA: 12 21 31.69052,  Dec: +28 13 58.50011 (2000.0)
! Established model.
! Flux (Jy) Radius (mas)  Theta (deg)  Major FWHM (mas)  Axial ratio   Phi (deg) T \
! Freq (Hz)     SpecIndex
 0.0821299      0.00000      0.00000 
0.000948513    0.0200000     -90.0000 
0.00990472     0.320000      90.0000 
0.00124035     0.320624      86.4237 
0.00412932    0.0282843      45.0000 
 0.0137929     0.320624      93.5763 
0.00387975    0.0447214      63.4349 
 0.0120910     0.823650      119.055 
0.000650187    0.0894427      63.4349 
0.000632797     0.107703      68.1986 
0.00449093     0.796492      118.496 
0.00179048    0.0200000      0.00000 
0.00357885     0.126491      71.5651 
0.000531062     0.806226      119.745 
0.00454389    0.0282843     -45.0000 
0.00806350     0.145602      74.0546 
0.00361451     0.340588      93.3665 
0.000242122     0.662118      115.017 
0.00246743     0.635610      114.146 
0.00303440     0.161245      82.8750 
0.00731115    0.0447214     -63.4349 
0.00302860     0.360555      93.1798 
0.00352650     0.609262      113.199 
0.00474569     0.841190      118.393 
0.00221926     0.220907      95.1944 
0.00251151     0.380526      93.0128 
0.00102568    0.0400000     -90.0000 
0.000461225     0.240832      94.7636 
0.00363432     0.617414      114.905 
0.000787568     0.868332      118.926 
0.00151169     0.134164      63.4349 
0.00517185     0.858836      117.759 
0.00463992     0.263059      98.7462 
0.00203808     0.400500      92.8624 
0.00113756    0.0600000     -90.0000 
0.00105386     0.652993      117.350 
0.00252606     0.420476      92.7263 
0.00414837    0.0632456     -71.5651 
0.000432936     0.689638      119.539 
0.00247642     0.116619      59.0362 
0.00246608     0.876584      117.150 
0.00108338     0.727186      121.504 
0.000458469     0.699714      120.964 
0.00189810      2.15713      107.259 
0.00181748     0.441814      95.1944 
0.000175700     0.583095      112.166 
0.00185290     0.737835      122.829 
0.00127824     0.282843      98.1301 
0.000322095      2.12641      106.390 
0.00171886     0.894427      116.565 
0.000233868     0.550273      109.093 
0.000644171      2.02830      102.529 
0.000427954     0.128062      51.3402 
0.000144429     0.544059      107.103 
0.000138606     0.113137      45.0000 
6.87719e-05     0.514198      103.496 
6.78082e-05      2.16315      107.765 
! Tentative model.
! Flux (Jy) Radius (mas)  Theta (deg)  Major FWHM (mas)  Axial ratio   Phi (deg) T \
! Freq (Hz)     SpecIndex
0.00100197     0.180000      90.0000 
0.000486175     0.200000      90.0000 
0.00133547     0.814125      117.824 
0.000183944     0.260000      90.0000 
9.05168e-05     0.161245      82.8750 
0.000353981     0.280000      90.0000 
0.00144890     0.796492      118.496 
0.00127446     0.141421      81.8699 
0.000657966     0.300000      90.0000 
0.00101696    0.0600000     -90.0000 
0.000240881     0.121655      80.5377 
0.000777152      2.07625      103.367 
0.000306726     0.320000      90.0000 
0.00156437      2.10038      103.772 
0.000172130     0.320624      93.5763 
0.00117047     0.340588      93.3665 
0.00150796    0.0800000     -90.0000 
0.000141099     0.778974      119.197 
6.97586e-05     0.831865      117.181 
0.000137387     0.761577      119.932 
0.000269371     0.849706      116.565 
0.000202683     0.360555      93.1798 
0.000391683     0.744312      120.700 
0.000195243     0.382099      96.0090 
0.000317973     0.867640      115.974 
0.000129087     0.424264      98.1301 
0.000125422     0.447214      100.305 
0.000298704     0.754718      122.005 
0.000120809     0.727186      121.504 
0.000122253     0.470744      102.265 
0.000639220     0.885664      115.408 
0.000118771     0.466905      99.8658 
0.000939314     0.490306      101.768 
0.000382324     0.737835      122.829 
0.000268199      2.08096      103.903 
0.000312650     0.126491      71.5651 
0.000471683     0.100000     -90.0000 
0.000108327     0.903770      114.864 
0.000411909     0.912360      116.003 
0.000488831     0.765506      123.275 
5.15797e-05      2.16832      104.421 
0.000101238      2.05679      103.496 
5.06509e-05      2.20708      104.162 
9.89193e-05      2.22648      104.036 
0.00101449     0.101980     -78.6901 
4.95142e-05      2.03735      103.627 
0.00113971     0.930376      115.463 
0.000929871     0.342345      96.7098 
0.000411291      2.01326      103.208 
0.000189658      2.23141      104.534 
0.000404740     0.116619      59.0362 
0.000800230     0.509902      101.310 
4.61950e-05      1.96469      104.744 
0.000389703      2.25078      104.407 
0.000619935     0.776660      124.509 
8.83276e-05      1.95059      105.461 
0.000203087      1.93680      106.189 
4.19256e-05     0.100000      53.1301 
0.000274927      2.00878      102.653 
0.000414959     0.113137      45.0000 
0.000119287      2.25584      104.899 
0.000293265      2.27517      104.769 
3.86510e-05     0.939149      116.565 
0.000985010     0.957079      116.030 
0.000712183     0.121655     -80.5377 
0.000281074      1.91760      106.356 
0.000503393     0.529528      100.886 
0.000283244     0.788162      125.707 
4.61941e-05     0.506360      99.0903 
0.000108109      2.15035      108.435 
0.000141292      2.00449      102.095 
0.000166942      2.15676      108.939 
0.000444096     0.116619      30.9638 
9.97793e-05      2.29452      104.642 
0.000785616     0.345254      100.008 
9.84270e-05     0.709366      130.426 
0.000129842      2.00040      101.535 
6.55313e-05     0.804487      124.875 
0.000831972     0.526118      98.7462 
0.000242981      2.29965      105.124 
0.000371804      1.89842      106.526 
6.29002e-05     0.832346      125.218 
0.000153300      2.16333      109.440 
0.000124082     0.694262      131.496 
0.000120699      1.98081      101.650 
0.000204205     0.848764      124.439 
8.82750e-05     0.707672      132.709 
0.000638887     0.126491     -71.5651 
0.000439550     0.975090      115.514 
8.54780e-05      2.18220      109.265 
2.88737e-05      1.99650      100.972 
2.87042e-05     0.107703      21.8014 
2.85493e-05     0.679412      132.614 
0.000240613      1.97687      101.083 
0.000722638     0.126491      18.4349 
0.000110432      2.31897      104.995 
0.000340325     0.693109      133.831 
5.56761e-05      2.17007      109.938 
2.75595e-05     0.549181      100.491 
5.42004e-05     0.860233      125.538 
0.000206020      2.18888      109.759 
0.00122135     0.545894      98.4270 
0.000153420      2.32422      105.471 
0.000247941     0.876584      124.778 
0.000195995     0.993177      115.017 
5.00020e-05      1.89283      105.945 
9.56800e-05      1.99279      100.408 
0.000460256      1.87361      106.113 
0.000162319      2.34887      105.811 
0.000185076      2.19572      110.251 
0.000226455     0.678822      135.000 
0.000177411      1.97312      100.513 
0.000307281      1.00180      116.053 
0.000352001     0.888144      125.838 
6.47705e-05      2.37924      106.607 
0.000245910      2.21450      110.072 
0.000239635     0.145602     -74.0546 
0.000122536      1.01134      114.538 
0.000361669     0.693109      136.169 
6.10006e-05     0.322490      97.1250 
6.21129e-05      2.40416      106.928 
0.000327586      1.16499      101.889 
0.000227819      1.98927      99.8411 
0.000117272      2.43516      107.691 
0.000395024     0.141421      8.13010 
5.84848e-05      1.86815      105.524 
3.86902e-05     0.360000      90.0000 
3.79860e-05      2.32362      103.438 
7.42356e-05      1.88298      102.265 
0.000164059      2.22144      110.556 
5.56812e-05     0.325576      100.620 
0.000159171      1.01980      115.560 
0.000106485     0.360555      86.8202 
0.000107491      2.46033      107.993 
0.000176682     0.900000      126.870 
1.84549e-05     0.161245     -82.8750 
5.29883e-05      2.31905      102.958 
3.61299e-05     0.200000     -90.0000 
8.50857e-05     0.305941      101.310 
0.000101610      2.07239      112.109 
0.000154245      1.18457      101.689 
0.000102744      1.87883      101.669 
6.83978e-05      2.23329      109.895 
0.000210438     0.220000     -90.0000 
8.28009e-05      1.02956      114.075 
3.35556e-05     0.134164     -63.4349 
0.000129745      2.48556      108.289 
0.000236530     0.679412      137.386 
0.000238532      2.00569      99.1805 
9.49301e-05      2.31465      102.475 
0.000302209     0.916079      126.119 
0.000137099     0.140000      0.00000 
0.000519430      1.18068      100.739 
0.000167044      2.24018      110.376 
6.42755e-05      1.86344      102.395 
0.000107982     0.362215      83.6598 
1.60576e-05     0.128062     -51.3402 
0.000235562      2.05387      112.319 
6.13881e-05     0.286356      102.095 
0.000262512     0.565685      98.1301 
1.57845e-05     0.402492      116.565 
0.000204080      1.85925      101.793 
0.000171788      1.04785      113.629 
8.24535e-05     0.141421     -45.0000 
0.000131478      2.51086      108.579 
1.49789e-05     0.375766      115.201 
1.48630e-05      3.08474      147.443 
0.000420202      3.05712      147.558 
8.43943e-05      2.31041      101.991 
0.000710901     0.240000     -90.0000 
7.01087e-05     0.263059      98.7462 
0.000163089     0.666033      138.652 
9.47975e-05     0.382099      83.9910 
0.000120476     0.144222     -33.6901 
1.43326e-05      2.25211      109.722 
0.000194877      1.03788      115.084 
6.34374e-05     0.384708      117.897 
1.38442e-05      2.51730      109.011 
6.71129e-05      2.53622      108.864 
0.000124657      2.25894      110.200 
0.000342098      2.06155      112.834 
0.000367020     0.928009      127.117 
2.62346e-05     0.266833      102.995 
0.000123825     0.160000      0.00000 
9.06390e-05      1.85526      101.189 
0.000124976      2.32998      101.889 
0.000137800     0.585491      97.8533 
6.22287e-05     0.364966      80.5377 
4.88434e-05      1.85440      106.285 
0.000371917     0.243310      99.4623 
0.000136558      2.54275      109.290 
0.000337831      2.02237      98.5308 
0.000153908     0.652993      139.970 
2.43611e-05      2.24722      110.854 
9.55909e-05      1.83565      101.310 
5.79044e-05      1.06621      113.199 
1.23370e-05     0.608276      99.4623 
0.000144263     0.605310      97.5946 
0.000186519     0.384708      81.0274 
0.000359208      1.20033      100.561 
0.000205772      2.56827      109.564 
0.000196843     0.156205     -39.8056 
0.000366244      2.32594      101.407 
0.000110296      3.57239      97.7218 
0.000168796      1.83183      100.697 
5.20451e-05      1.10164      105.803 
0.000142184      2.26592      110.674 
0.000187179     0.161245      7.12502 
4.14682e-05     0.394462      120.466 
7.02213e-05      1.86011      106.876 
1.09270e-05     0.681175      139.764 
9.12382e-05     0.640312      141.340 
2.10686e-05     0.750733      138.240 
0.000189830      1.02859      116.565 
7.99099e-05      2.04313      113.051 
0.000128807      3.54993      97.4453 
0.000149418     0.625140      97.3524 
2.03001e-05      3.04026      147.355 
2.95183e-05     0.778974      138.122 
8.67142e-05      3.02952      147.674 
0.000190701      2.59384      109.832 
0.000196725      2.06940      113.344 
5.66482e-05      1.80854      100.192 
0.000288605     0.940213      128.089 
6.23056e-05     0.793977      139.086 
9.40111e-06     0.367151      119.358 
2.75431e-05     0.612209      141.633 
0.000391962      3.54739      97.1250 
5.04259e-05      1.09417      108.104 
0.000175555      2.99232      107.103 
0.000219914      3.01264      147.470 
0.000543279      2.66481      106.123 
7.07820e-05      1.80510      99.5667 
8.20742e-05     0.377359      122.005 
0.000101164      2.25442      111.329 
0.000108101      2.30634      101.505 
0.000233357     0.172047     -35.5377 
0.000118532      2.05105      113.565 
6.75012e-05      1.83521      106.460 
8.82149e-06     0.368782      77.4712 
0.000134444     0.628013      142.765 
7.33122e-05     0.388330      78.1113 
0.000119564      1.78213      99.0395 
0.000274864      1.22000      100.389 
0.000127436     0.644981      97.1250 
2.42328e-05     0.822192      138.945 
0.000339340      2.01950      97.9696 
0.000110026      2.61947      110.095 
0.000137301      1.84098      107.057 
6.60102e-05     0.837377      139.844 
7.72869e-06      2.27306      111.146 
0.000360974     0.181108      6.34019 
1.50807e-05      2.26177      111.801 
5.03313e-05      2.24321      111.991 
7.01602e-05     0.373631      74.4759 
7.99802e-05     0.247386      104.036 
2.14495e-05      1.10055      109.093 
6.44635e-05      2.99827      107.468 
7.81528e-05      1.77910      98.4034 
0.000104337      1.02000      118.072 
5.70130e-05      2.27059      107.956 
0.000223267      2.47588      96.4935 
9.68096e-05      2.32207      100.923 
7.22167e-06      1.10725      106.798 
9.07948e-05     0.388330      124.509 
9.36251e-05      2.98503      147.588 
4.04159e-05     0.961873      93.5763 
0.000127936      2.05913      114.075 
4.59942e-05      2.22468      112.184 
3.22805e-05     0.392938      75.2564 
2.02244e-05      3.01735      107.354 
0.000196831      1.75647      97.8533 
4.46194e-05     0.852760      140.711 
0.000221724      2.62640      110.505 
0.000283186      2.30243      101.017 
0.000157091      3.02338      107.716 
0.000250732     0.952680      129.036 
6.51289e-06      1.09563      111.413 
6.49047e-06     0.642806      95.3558 
5.49991e-05     0.960833      92.3859 
0.000142128      2.20617      112.380 
6.33861e-06     0.664831      96.9112 
0.000163337     0.662722      95.1944 
0.000122680      2.96816      147.381 
6.12796e-05      1.10725      110.072 
0.000100513     0.379473      71.5651 
0.000117753      1.23968      100.222 
1.19911e-05      1.10073      87.9174 
2.83901e-05     0.644050      143.842 
0.000190531     0.188680     -32.0054 
0.000104700      1.81604      106.639 
1.19128e-05     0.600000      143.130 
5.98565e-06      1.12071      87.9546 
1.18491e-05     0.880909      140.528 
0.000199318      3.52278      96.5198 
5.96400e-05      1.12161      86.9335 
6.01466e-05     0.896437      141.340 
0.000119992     0.496790      139.899 
8.55231e-05      2.06737      114.582 
0.000114947      1.02956      119.055 
5.59963e-06      1.10164      86.8779 
0.000131537      3.70259      98.6991 
1.07002e-05     0.400000      126.870 
2.50844e-05      2.26451      107.475 
0.000202777      1.75385      97.2061 
4.82940e-05     0.912140      142.125 
8.77639e-05      2.18769      112.580 
3.46000e-05      1.24338      101.129 
0.000153282      3.02952      108.076 
5.05115e-06     0.398497      72.4744 
8.70631e-05      1.12285      85.9144 
0.000133757      1.82187      107.241 
0.000115923     0.386264      68.7495 
7.26858e-05      2.95134      147.171 
6.43648e-05      2.07577      115.084 
4.34627e-05      1.11427      111.038 
5.17849e-05     0.372022      126.254 
7.94746e-05      1.26301      100.954 
-0.000156349     0.184391      167.471 
3.89358e-05      2.23231      112.659 
0.000143167      1.39786      109.213 
9.59461e-05      2.65217      110.758 
4.26814e-05     0.928009      142.883 
1.68380e-05      2.29896      111.431 
8.63786e-06     0.512250      141.340 
2.94346e-05      2.08432      115.582 
4.10770e-05     0.453431      138.576 
8.63619e-05      1.22589      84.3824 
0.000110668      2.03931      97.8917 
2.83956e-05      2.94054      147.499 
8.79557e-05      1.25936      100.061 
5.15457e-05     0.220907      95.1944 
0.000114806     0.682642      95.0425 
1.60141e-05      2.06630      115.821 
0.000174306     0.944034      143.616 
0.000262897      3.95535      151.621 
0.000158928      3.94588      151.876 
7.04065e-05      4.02124      150.503 
7.10334e-05      4.03113      150.255 
0.000226575      3.91883      151.996 
9.51383e-05      4.05842      150.150 
9.23907e-06      2.03666      97.3344 
1.82364e-05      2.94679      148.036 
7.29075e-05      1.77629      97.7652 
1.78407e-05      1.38521      107.650 
9.62278e-05      2.16749      94.7636 
0.000146582      2.92985      147.829 
7.77624e-05      1.11946      108.759 
0.000101369      1.39140      108.435 
0.000134198      4.06842      149.906 
7.32549e-05     0.980816      129.207 
2.90359e-05      1.02215      120.579 
3.68918e-05     0.420476      64.6538 
4.85357e-05      2.25282      106.504 
5.53745e-05     0.184391      12.5288 
3.48439e-05      2.47823      96.9530 
6.17199e-05      3.52057      96.1964 
6.21214e-05      1.79689      106.821 
1.45036e-05     0.384187      128.660 
6.13118e-05      3.89179      152.118 
3.40619e-05      2.90682      145.654 
3.38216e-05     0.184391     -40.6013 
7.06497e-06     0.396989      130.914 
4.70184e-05     0.429418      62.2415 
3.99947e-05     0.438634      136.848 
1.96464e-05      2.21387      112.859 
1.94935e-05     0.932309      144.605 
6.50604e-06      1.11319      107.784 
6.45319e-06     0.965401      129.958 
