! Center RA: 12 21 31.69052,  Dec: +28 13 58.50019 (2000.0)
! Established model.
! Flux (Jy) Radius (mas)  Theta (deg)  Major FWHM (mas)  Axial ratio   Phi (deg) T \
! Freq (Hz)     SpecIndex
  0.124050      0.00000      0.00000 
 0.0164377    0.0286526     -45.0000 
 0.0554764    0.0202604     -90.0000 
0.00680404    0.0828082      75.8378 
 0.0234495     0.101837      78.5245 
0.00632165    0.0286526     -135.000 
 0.0298038    0.0397705     -90.0000 
 0.0270287     0.121759      80.4216 
 0.0130002    0.0446338     -116.996 
0.00250478     0.120062      90.0000 
0.00209232     0.140322      90.0000 
0.00285048     0.161111      97.2243 
0.00173198     0.204262      101.227 
0.00138378     0.227911      105.272 
0.00399238     0.247514      104.036 
0.00336399     0.271765      107.184 
0.00540681    0.0896014      63.6495 
0.00405820    0.0562440     -135.000 
0.00240920     0.297155      109.625 
0.00409120    0.0633577     -108.650 
0.00124626    0.0848966      45.0000 
0.00202482     0.323277      111.801 
0.00180955     0.100252      53.2159 
0.000556646     0.349107      113.700 
0.000269110     0.367749      112.431 
0.000173837     0.430710      111.783 
0.000501125     0.457182      113.199 
0.00124801     0.304558      113.217 
0.00282766    0.0802914     -90.0000 
0.000918644     0.475177      112.272 
0.00170992     0.100252      36.7841 
0.00172221     0.501727      113.536 
6.48911e-05     0.278155      111.026 
0.000808432     0.286050      114.817 
0.00102742      1.06314      109.803 
0.000525448     0.520365      112.645 
0.00205988      1.05010      107.723 
0.000260452     0.126477      108.327 
0.000669386     0.101837      101.476 
6.07188e-05     0.402700      116.565 
0.000175622     0.384685      117.915 
0.000128472     0.366905      119.396 
0.000272996    0.0802914      90.0000 
0.000217969     0.528183      114.599 
0.000442413     0.797167      107.531 
0.000264112     0.340058      118.035 
0.000106278    0.0633577      71.3505 
0.000586221    0.0600310     -90.0000 
0.00152057     0.545983      113.747 
0.000651300     0.322315      119.728 
0.000289830     0.803259      108.858 
0.000375434    0.0720098      56.4755 
0.000452997      1.05645      108.770 
4.46488e-05     0.295127      118.390 
0.00104018     0.828371      109.748 
8.59940e-05    0.0720098      33.5245 
4.27383e-05     0.250509      118.638 
0.000123581    0.0896014      26.3505 
0.000626403     0.278118      120.301 
0.000504097    0.0828082     -75.8378 
0.000301454     0.101837      11.4755 
7.79571e-05      1.06870      107.404 
3.89675e-05      1.06991      110.787 
3.80537e-05      1.07726      111.794 
3.77165e-05      1.06303      106.401 
7.41751e-05      1.10296      112.395 
3.65274e-05      1.05749      105.348 
0.000104507     0.350038      120.964 
0.000175718      1.11054      113.326 
3.54507e-05      1.07704      105.063 
0.000387012     0.121759      9.57842 
0.000227367      1.07195      104.017 
0.000194130      1.11872      114.279 
6.20670e-05     0.377263      122.078 
0.000288745      1.12720      115.217 
0.000484694      1.08715      102.760 
2.95749e-05     0.404832      122.895 
0.000657307     0.233573      120.932 
0.000367605     0.159832      0.00000 
8.26101e-05     0.432889      123.690 
0.000363564     0.116465     -58.9729 
8.09052e-05      1.08147      86.8180 
0.000202343      1.16280      116.565 
0.000177164      1.47658      114.820 
6.75674e-05      1.08279      85.7475 
2.59906e-05     0.471709      126.396 
0.000507446      1.13565      116.108 
0.000101168     0.481892     -4.73400 
0.000379720      1.06707      83.5397 
9.84163e-05     0.566349      132.100 
2.51660e-05     0.100252     -143.216 
0.000120392     0.861421      111.783 
0.000138049     0.126477     -161.673 
0.00113716     0.523472     -6.58508 
0.000621953      1.48520      115.529 
0.000363669     0.180093      0.00000 
4.60561e-05     0.580127      133.585 
4.55079e-05      1.36511      100.964 
0.000168550     0.869143      113.023 
0.000126653     0.621868      135.000 
0.000672157      1.36153      100.158 
0.000513947     0.538423      111.846 
0.00111824      2.64477      112.680 
0.000100969     0.161111     -172.776 
0.000109144     0.727252      97.8876 
0.000205391     0.636355      136.290 
0.000227190     0.903799      114.842 
0.000534027      1.06954      82.4611 
1.87693e-05     0.200353      180.000 
0.000151646     0.220795      174.735 
0.000122050      1.11058      103.520 
0.000493647     0.156126     -50.2649 
0.000157756      1.17200      117.451 
0.000352102      3.51374      128.767 
0.000103863     0.724832      96.3598 
0.000198468     0.205897      118.994 
0.000116331     0.576231     -159.654 
0.000251078      2.61857      112.457 
0.000117827     0.243395      170.596 
0.000158987     0.651151      137.522 
8.19687e-05     0.583302     -157.856 
1.42355e-05      1.67257      116.255 
6.66221e-05      1.69973      116.565 
5.33935e-05      1.49404      116.230 
0.000643888      3.54175      128.808 
2.58870e-05     0.141777      8.21587 
0.000187331     0.912496      115.996 
0.000483073      2.38401      127.158 
0.000247285     0.701240      93.2513 
1.29107e-05     0.594563     -160.307 
0.000478428      1.46694      115.870 
3.68968e-05     0.599425     -154.333 
0.000230870     0.543603     -6.34019 
6.87746e-05     0.588045     -162.166 
0.000122993      1.72593      116.855 
5.54388e-05      1.09162      103.759 
0.000174810     0.608475     -152.613 
9.92448e-05     0.880437     -178.681 
6.11432e-05     0.557279      111.071 
4.15842e-05     0.694267      138.505 
8.00119e-05     0.266484      166.981 
0.000147038     0.730308      170.538 
-0.000880497     0.601418     -21.4430 
0.000153857     0.899942     -178.710 
0.000217068      1.35811      99.3166 
0.000148273      1.75318      117.146 
9.37813e-06      1.06740      103.001 
0.000180524      1.14471      117.019 
0.000192937     0.169793     -45.0000 
0.000142747      2.35563      127.063 
6.74054e-05     0.582160     -164.065 
8.98384e-06     0.885454      115.392 
0.000150745      1.05916      79.0961 
0.000122490     0.894329      116.565 
0.000126017     0.618057     -150.945 
9.65813e-05     0.291183      163.994 
3.61398e-05     0.709570      139.589 
0.000205328     0.899714      180.000 
1.52991e-05      1.04767      103.250 
0.000123031      3.55448      129.062 
2.21767e-05      1.10618      102.537 
5.67963e-05      1.78954      117.983 
7.37971e-06     0.749560      170.783 
7.64001e-05     0.753070      169.261 
0.000337142     0.565518     -8.16236 
3.85507e-05     0.531217      109.817 
-0.000314910      2.42419      123.562 
0.000148000     0.184676     -40.5508 
8.60860e-05     0.635182     -151.800 
6.18716e-05      1.02868      103.499 
0.000174732      1.81630      118.259 
6.76776e-05     0.903572      117.714 
-0.000248835      1.30136      133.738 
-0.000378444     0.323277     -68.1986 
0.000193954     0.201375     -5.77433 
1.85412e-05      1.10025      88.9449 
-0.000182056      2.61152      116.374 
-0.000385129     0.411965      67.1714 
5.23445e-05     0.188432      121.981 
7.46457e-05      1.33505      98.6311 
4.95522e-05     0.563425     -163.520 
2.27613e-05      1.05231      75.7160 
1.17971e-05      1.28304      120.975 
5.14710e-05     0.512905      110.556 
1.62672e-05      1.12597      102.313 
9.87605e-05     0.700404      91.6576 
2.68402e-05      1.12051      91.0360 
2.26347e-05     0.930615      118.197 
2.24929e-05      1.31047      121.251 
6.75207e-05     0.961787     -159.303 
7.78036e-05     0.940357      119.286 
5.03583e-05     0.772985      169.541 
7.55590e-05     0.653108     -152.640 
0.000115299     0.212689     -41.2810 
7.16394e-05     0.506146      108.408 
6.04260e-05     0.161670      119.778 
5.56810e-05      1.32109      122.002 
5.35624e-06      1.11816      116.548 
1.50081e-05     0.724535      140.590 
9.96352e-06     0.271765      162.816 
3.01323e-05      2.31618      126.569 
5.10093e-06      1.05749      74.6522 
1.90729e-05      1.12103      92.0331 
4.91464e-06      1.05010      72.2772 
-7.10376e-05      1.75321      122.432 
3.77334e-05     0.950432      120.351 
4.80765e-06     0.297155      160.375 
2.35348e-05      2.19247      125.725 
-1.86693e-05      2.62969      116.178 
1.40380e-05     0.480914      106.965 
1.39777e-05      1.05645      71.2304 
-1.39622e-05     0.971135      57.6239 
-4.69691e-06     0.902718      77.1767 
4.69913e-06      1.00899      103.768 
-1.39934e-05     0.720372      0.00000 
-1.85774e-05     0.917561      78.6809 
9.32119e-06      1.34839      122.293 
-9.26403e-06      1.07201      143.339 
-0.000888764      12.8323      37.2076 
0.000810082      6.48430      162.962 
-0.000154324      6.88794      134.179 
0.000698805      10.8359      19.4061 
0.000533275      11.3805     -59.2429 
-0.000574010      6.85983      134.171 
0.000447794      6.50601      102.970 
0.000385950      9.10112     -140.081 
-0.000537674      3.88084      13.1092 
0.000459368      4.18142      121.108 
0.000359238      6.50149      102.796 
-0.000395703      4.48742      165.285 
-0.000106010      6.87397      134.292 
-0.000425885      9.40825      133.365 
-0.000567735      8.52713      138.235 
-0.000381551      8.57844      82.2278 
0.000399390      10.6364     -127.129 
-0.000232568      5.53714      64.0843 
0.000223375      9.60736     -66.0516 
-0.000606406      10.4610      168.195 
-0.000273756      10.8827     -118.544 
-0.000227767      6.81162      160.982 
0.000357058      7.74730      171.388 
0.000185310      10.5669      69.8497 
0.000262725      9.57274     -66.2199 
0.000344488      9.11667     -140.162 
-0.000181379      8.93818     -58.7294 
-0.000220459      10.3173      60.5022 
0.000219839      10.1481      65.3053 
-0.000267299      11.0806     -61.3053 
-4.67935e-05      9.10152     -17.9151 
-0.000172007      7.05726     -63.9444 
-0.000476480      5.49748      141.796 
0.000358756      10.8315     -116.187 
0.000130886      6.64982     -136.706 
-0.000297616      13.8775     -133.657 
-0.000208551      12.3572      131.324 
0.000209956      8.54800      34.3220 
-0.000125959      9.10761     -51.4191 
0.000129343      6.27965      4.56464 
-0.000291546      12.6874      136.086 
0.000249772      10.9446      38.5475 
0.000167079      8.56169     -22.6724 
-0.000125287      9.12008     -17.8774 
0.000125196      3.67704      157.617 
0.000165381      10.4284     -143.656 
0.000164738      6.36613     -11.4146 
0.000124223      1.40914      145.413 
8.31635e-05      10.6242     -127.042 
8.20949e-05      5.93391      121.493 
-0.000162597      3.95161     -21.3711 
0.000162142      9.23628      165.451 
0.000224193      10.5783      69.9891 
0.000162408      8.51747      28.0122 
-8.05937e-05      10.8921     -118.634 
-0.000161144      9.80172     -112.430 
-8.31169e-05      5.66186     -25.7500 
0.000160889      13.6328      44.8818 
-0.000121790      12.8205      37.1382 
-8.24161e-05      9.58940      2.51156 
0.000160455      11.6611      41.4547 
0.000120361      4.28198      98.0591 
-0.000119600      7.04982     -73.5210 
0.000120208      9.91924      86.4174 
-8.02911e-05      6.68981     -123.781 
0.000118855      11.4599     -125.410 
-0.000157527      12.3850      125.205 
-4.08193e-05      1.73671     -144.834 
-0.000118488      10.3353     -11.1566 
-0.000118997      11.1077     -61.2672 
0.000116771      12.2305      42.4837 
-4.00435e-05      5.55916     -32.6604 
-0.000116685      11.1441     -134.564 
7.76414e-05      7.42696      23.3194 
3.96618e-05      6.29984      4.54998 
-7.72851e-05      7.23129      86.8294 
7.77791e-05      7.77039      171.263 
3.90046e-05      12.4473     -132.068 
-3.90450e-05      8.92807     -58.8364 
-3.87994e-05      6.54401     -103.609 
3.86864e-05      2.71875     -83.2477 
0.000151581      10.8226     -116.091 
-3.84932e-05      10.6285     -117.819 
5.76613e-05      9.43768     -168.260 
-3.83038e-05      9.10595     -156.025 
3.82273e-05      9.11059      110.027 
3.79768e-05      5.99552     -65.1477 
3.78298e-05      6.63509     -136.586 
-3.77323e-05      12.5517     -130.670 
-0.000676934      6.76280      133.318 
-0.000263761      10.0452      29.0637 
0.000540190      9.03218      17.7922 
0.000497340      10.0266      116.414 
-0.000105352      10.0997      131.708 
-0.000321781      12.6606      53.6728 
0.000239995      3.01204     -104.220 
-0.000262894      10.2826     -167.534 
-0.000444435      10.2269      43.8108 
-0.000378745      10.1132      131.794 
-0.000492892      9.88955     -39.4209 
-0.000362344      10.2297     -11.0462 
9.52554e-05      6.56222     -135.496 
-4.82943e-05      11.1135     -125.034 
0.000426566      10.2681      23.1700 
0.000138667      9.19440      110.365 
-9.05644e-05      5.14331     -160.225 
-0.000135243      10.0275      29.1200 
-0.000134529      7.46933     -16.0079 
0.000217553      13.6475      44.5857 
-0.000821010      11.1190     -124.891 
-8.85394e-05      3.50494      70.3198 
0.000287661      3.13032     -153.429 
0.000132482      6.59160     -135.982 
0.000166247      1.30462     -125.637 
-4.54501e-05      12.5728      135.580 
-0.000477798      7.14658      20.8194 
-0.000232416      5.54352      147.971 
-0.000479862      9.76703      42.5091 
0.000129971      5.38919     -43.9450 
-0.000122252      4.72240     -100.742 
-0.000227335      11.3236     -140.518 
-0.000125205      5.45370      141.705 
0.000315970      2.48798     -114.710 
-0.000296424      10.9642     -114.460 
-0.000259213      9.32315      133.523 
0.000119940      9.74076      113.091 
-0.000162497      10.2098     -11.0680 
-0.000195532      9.78629     -21.5860 
8.32580e-05      7.39291      106.178 
-0.000201326      9.31079      139.878 
0.000465328      8.83292     -53.9333 
0.000224532      9.20147      110.483 
0.000184025      10.5358     -103.615 
-0.000507027      10.7227     -131.749 
-0.000195123      7.48881     -15.9651 
0.000301352      12.8334      142.345 
-0.000484357      10.6621     -145.622 
-0.000222644      6.41265     -146.063 
-0.000151973      11.7161     -131.609 
-0.000152829      10.0528      28.9125 
4.10951e-05      8.57019      33.5801 
4.08848e-05      5.42100      49.7893 
7.86246e-05      7.87440      108.663 
-0.000114762      12.5736      135.708 
0.000189166      4.60436      17.9595 
-4.01974e-05      11.8514     -42.1951 
0.000321319      5.37463     -44.0949 
7.67196e-05      6.60564     -136.100 
-0.000241206      4.73495     -100.215 
-3.97273e-05      5.16899     -160.097 
-0.000114630      13.6376     -46.4269 
0.000333283      3.82106      1.20404 
0.000174401      7.39858      106.329 
0.000237795      8.55900      33.4672 
0.000292107      13.6477      44.4654 
-0.000135243      10.6862     -124.940 
-3.87831e-05      8.30006      4.00738 
0.000264033      6.65760      110.396 
0.000104990      5.77265      49.3543 
-0.000109187      12.6722      53.6017 
3.83798e-05      8.28629      107.562 
-3.84030e-05      7.20157     -82.4981 
3.82832e-05      5.45723     -113.089 
-3.81905e-05      3.51155      70.0200 
0.000142188      5.19687     -69.2648 
-0.000107853      11.8795     -42.2043 
0.000203876      7.80681      10.3324 
-0.000232154      13.3526      48.8850 
-0.000165887      9.35446     -80.2740 
0.000165162      8.30561      107.520 
-0.000193933      8.65944     -73.9114 
-0.000102205      7.27214      67.5234 
-3.62155e-05      6.72329      14.1215 
-3.61080e-05      2.76585      7.89048 
7.07761e-05      9.48819     -13.6549 
-0.000160577      8.38071     -90.5489 
-0.000190183      9.86382     -66.7116 
6.53401e-05      11.2189      122.332 
-3.55770e-05      10.7114     -131.518 
0.000123280      5.46521     -113.284 
-6.89681e-05      3.52990      70.1282 
3.50569e-05      3.81113      33.4429 
0.000387841      9.99113      116.255 
0.000121333      10.5783     -28.4557 
-0.000600948      13.6236     -46.4886 
-6.66945e-05      10.2059     -10.9563 
-0.000521626      10.8515     -141.060 
3.46273e-05      9.71418      113.028 
-6.67157e-05      6.77672      133.443 
-9.44977e-05      6.92063      19.5882 
3.45285e-05      3.14845     -153.594 
-0.000257566      7.50829     -15.9226 
3.44271e-05      6.62026     -136.222 
0.000339984      9.04461      17.6322 
6.65283e-05      7.86818      108.528 
0.000290953      4.62364      17.8821 
9.28986e-05      8.29999      26.6253 
-3.42491e-05      10.0249     -6.52869 
0.000274119      10.1681     -52.9939 
3.41763e-05      8.80462     -53.9622 
-6.60574e-05      1.22366     -101.317 
-9.66996e-05      8.63267      82.5433 
-6.48742e-05      11.1302     -134.634 
-0.000208966      11.4846     -116.923 
-3.39203e-05      11.0049      43.8231 
6.63998e-05      10.5481     -158.884 
-0.000154166      10.2821     -156.376 
-0.000178526      11.6071      55.1048 
-0.000119907      7.92445     -38.7496 
-6.54013e-05      10.8241      53.4908 
-0.000362603      9.17054     -156.342 
-3.34616e-05      7.17886     -82.6373 
-3.34352e-05      11.7770     -142.312 
9.57416e-05      10.7876      154.053 
0.000125656      9.44476     -13.5924 
-0.000120557      9.61003      84.1470 
0.000263028      9.21011      19.5392 
-3.31689e-05      12.5876      135.770 
-3.29899e-05      13.6657     -46.4217 
3.29379e-05      8.40827      53.5136 
-3.28990e-05      4.57718      66.5745 
-9.33881e-05      10.0285     -12.7874 
-0.000193838      11.5695     -44.1591 
6.20796e-05      9.70627      112.918 
0.000459000      11.4665     -125.631 
-3.25950e-05      12.0348     -44.6640 
-3.25829e-05      8.70553     -120.511 
-0.000117397      5.99596      127.137 
-0.000250662      3.53684      69.8196 
-6.24052e-05      9.76746     -21.6298 
-0.000152647      10.0473     -6.63034 
-0.000124911      10.8562     -58.9459 
-6.22690e-05      6.70844      14.3254 
9.43943e-05      12.4609     -132.137 
-0.000405737      9.54388     -42.1128 
-6.31201e-05      9.20217      84.5112 
9.29694e-05      6.63490     -136.343 
-0.000168338      7.30593     -177.645 
-0.000120377      6.63412     -112.702 
6.17055e-05      8.72982      153.906 
-0.000147007      10.1418      131.803 
-0.000241556      12.1063     -128.762 
6.10933e-05      10.0257      19.3368 
3.16441e-05      3.81634      33.0276 
-6.12776e-05      5.51624      148.042 
-3.15145e-05      9.32771     -80.4983 
5.95463e-05      10.4886      60.4051 
-0.000249036      10.8837      40.3048 
-6.04263e-05      11.7295     -131.683 
0.000454967      12.8612      142.326 
-0.000245603      10.9898      44.0400 
5.98039e-05      8.46435     -128.767 
-0.000125271      6.85065      137.370 
-0.000114035      11.7248      126.049 
-6.02202e-05      12.0941     -128.690 
-3.07978e-05      9.72496      25.1948 
-3.07285e-05      6.39585     -145.961 
0.000114496      12.0524      122.188 
-3.04809e-05      8.31889      3.85842 
0.000191023      10.9177     -60.4749 
-0.000206235      7.00941     -22.8345 
-0.000184355      9.35074      133.527 
8.65752e-05      10.5299     -158.846 
-5.93019e-05      8.94179      84.4813 
-5.95042e-05      13.9606     -133.898 
-5.86702e-05      8.71583     -120.625 
2.98739e-05      3.80000      33.1880 
2.98095e-05      13.4678      46.4448 
-0.000357366      10.8663     -58.8578 
0.000174151      7.36515      112.178 
5.67162e-05      9.81292      152.704 
-0.000128012      10.2129      43.7288 
-0.000133642      9.87312      174.071 
0.000462341      8.28988     -175.155 
0.000279248      9.42952     -168.501 
-5.44369e-05      1.22764     -102.210 
0.000183635      12.4745     -132.206 
-2.93290e-05      10.1363      39.1533 
5.59011e-05      4.64221      17.8082 
2.92160e-05      5.83721     -150.885 
-2.90181e-05      12.0072     -44.6633 
-7.95973e-05      5.54603      63.8961 
2.89237e-05      3.43692     -106.215 
-0.000135231      4.81957     -60.1378 
8.15575e-05      8.42034      53.4028 
-4.97375e-05      11.5650     -60.2445 
-0.000236187      10.2489     -11.0253 
-2.87735e-05      9.33108     -80.3756 
5.19650e-05      10.7694      154.006 
-4.37521e-05      4.26686     -41.0068 
8.17463e-05      7.78688      10.3592 
0.000178491      10.2967      22.9793 
0.000339181      10.8535      60.6472 
-0.000107838      9.33111     -27.7191 
0.000177619      10.8586     -116.236 
-2.84167e-05      10.3017     -167.557 
-0.000197619      13.3392      48.9505 
-5.59459e-05      13.9466     -133.838 
-2.83095e-05      6.40136     -146.213 
-2.82949e-05      4.16254     -132.267 
2.82736e-05      5.85492     -150.981 
5.52614e-05      6.64903     -136.459 
-0.000274976      9.54320      88.4410 
-8.02362e-05      11.7157      56.4178 
2.80580e-05      6.22472     -55.3367 
7.67538e-05      8.53330     -34.8793 
5.31709e-05      11.2257     -51.2929 
-5.46905e-05      8.63522      82.4149 
2.79669e-05      3.78895      32.9316 
0.000237453      8.73875      153.787 
-5.49448e-05      12.3912     -51.8170 
5.44009e-05      2.50571     -114.523 
2.78980e-05      11.2021      120.822 
0.000105125      9.46373     -13.5646 
-7.61306e-05      10.1515      39.0838 
2.76159e-05      10.8014      156.425 
2.75948e-05      5.56524      108.433 
7.64539e-05      9.23107     -150.824 
-0.000104311      10.0691     -6.73204 
2.75806e-05      6.99469      62.7780 
7.73925e-05      8.80566      114.702 
0.000127059      12.6606      126.327 
2.74287e-05      7.38977      23.4438 
0.000285860      5.82972     -150.624 
0.000119800      9.76475      14.3491 
-2.73577e-05      11.7931     -142.373 
-9.99478e-05      9.53294      23.2312 
-0.000236030      8.94376      84.3521 
-0.000226814      9.55830      9.02898 
-5.06525e-05      6.35842     -6.32152 
7.59249e-05      10.6446      158.739 
7.88133e-05      6.25249     -55.2953 
-0.000140138      11.5955      55.1869 
-2.70040e-05      11.7948      134.863 
-0.000168850      6.62633     -112.540 
-7.87219e-05      10.2461     -92.0146 
2.69369e-05      11.2135     -51.3707 
-7.57179e-05      8.99516      131.666 
0.000167203      6.26511      92.3751 
-0.000481281      10.8731     -150.465 
0.000143508      8.51001     -87.1696 
2.65935e-05      7.00398      62.6306 
-0.000175847      9.17011      99.6666 
-2.66041e-05      8.64882     -155.984 
-2.65711e-05      13.9331     -133.780 
-5.00880e-05      5.69839     -25.5730 
-2.64832e-05      6.87384      134.058 
-2.64102e-05      6.04107      10.4920 
-2.64278e-05      2.54235      60.8173 
7.55391e-05      9.64423      110.391 
-0.000351564      10.2740     -156.479 
-0.000204776      4.17700     -132.087 
-9.91375e-05      7.21108     -169.938 
9.50534e-05      8.03152     -113.945 
-2.62113e-05      12.4518      53.4243 
9.74070e-05      8.28819     -36.7589 
0.000121635      9.33719     -97.3832 
2.59902e-05      5.17793     -69.1854 
-5.08750e-05      6.88978      19.8520 
2.59488e-05      8.28020      107.428 
-4.95502e-05      6.67079      74.8789 
7.25676e-05      10.3667      10.8984 
0.000115952      10.5110     -158.806 
7.30068e-05      10.0186      76.9620 
-5.01932e-05      8.21845      65.8665 
-2.58412e-05      11.9687     -48.1818 
0.000117317      11.2542     -51.2769 
2.56634e-05      6.66373     -136.579 
-9.78668e-05      13.7013     -132.634 
-0.000140985      12.3628     -51.8328 
0.000160360      4.11418     -94.7393 
-9.70941e-05      10.1829      131.897 
4.87550e-05      11.0205     -117.450 
2.55886e-05      3.79481      32.5242 
0.000117256      7.00383      62.9957 
-7.22835e-05      7.95235     -38.7755 
0.000173913      12.0628      122.266 
0.000168263      13.6480      44.3451 
-2.54706e-05      6.38081     -6.48231 
2.53987e-05      11.2125      120.911 
-0.000242177      10.6460     -145.563 
-4.98957e-05      13.9191     -133.720 
7.27354e-05      10.5657     -39.7790 
-4.81049e-05      9.20812      96.9883 
0.000336108      13.4680      46.5645 
-0.000131985      6.06099      10.4571 
-4.22176e-05      9.88975     -66.6484 
9.43721e-05      8.95332      120.173 
-0.000133314      11.9817     -48.1123 
-9.43060e-05      12.4639      53.3495 
-4.78663e-05      8.66733     -156.038 
-0.000105869      11.7367      126.129 
-0.000118427      4.69112     -6.61346 
0.000198869      13.3503     -45.3644 
9.26654e-05      8.42397      53.5925 
6.61433e-05      5.57168      108.630 
-0.000188709      10.2468     -92.1236 
4.81957e-05      6.26854     -55.3968 
-7.18302e-05      11.5549     -44.2291 
2.45787e-05      3.78396      32.2655 
-4.77614e-05      11.8049      55.7715 
-6.84458e-05      9.09171      99.7508 
-4.62030e-05      11.8091     -142.433 
6.83420e-05      9.79492      152.650 
0.000110801      7.80320      10.1861 
-0.000227863      9.35746     -27.7692 
2.43721e-05      9.67217      112.747 
4.71668e-05      8.00517      62.7960 
-2.42418e-05      11.9268      136.698 
0.000133430      9.42049     -13.5060 
0.000114714      13.3789     -45.3636 
4.71469e-05      6.67882     -136.939 
2.41317e-05      6.03033      25.1237 
-8.75241e-05      6.40095     -6.46184 
-2.40254e-05      4.82969     -59.9294 
-0.000311567      9.02377      131.676 
-2.40316e-05      11.7425     -131.754 
-0.000106641      7.18761     -170.069 
-6.88786e-05      6.87073      19.9093 
-2.39376e-05      8.93065      146.418 
9.04795e-05      11.6781      41.2486 
0.000117541      3.10368     -152.778 
2.38177e-05      10.9077     -60.5675 
0.000360420      9.77867      14.2058 
0.000107592      9.46253     -144.460 
-2.35828e-05      11.7045      56.5004 
4.48956e-05      7.39072      7.93101 
-2.35229e-05      2.74390      7.54287 
-0.000296947      9.54378      88.3194 
8.58635e-05      8.55331      33.6552 
-0.000111383      13.3285      49.1366 
6.54500e-05      13.1954      45.6751 
-0.000109632      9.45023      16.0979 
0.000167597      12.9331     -52.3495 
-0.000140405      10.9561     -114.367 
-0.000233783      10.2687     -11.0037 
2.32751e-05      11.2230      121.000 
2.31507e-05      3.79038      31.8431 
-0.000125711      10.3901      14.0352 
2.31277e-05      10.5955     -28.4055 
-2.31357e-05      13.9051     -133.660 
-4.39738e-05      9.22042      84.6485 
0.000166381      6.29672     -55.3498 
0.000120562      8.39387     -169.013 
2.30000e-05      6.85930      104.521 
4.35434e-05      12.6750      41.9933 
0.000167561      9.52809      157.149 
-6.61225e-05      4.79294     -60.2240 
-2.29344e-05      12.3091     -37.5398 
-0.000104927      8.20798      65.6844 
0.000190488      10.9449     -60.4383 
0.000246154      9.59901      106.583 
2.28486e-05      8.62805     -92.5222 
-0.000415578      9.19350      99.7699 
4.34099e-05      4.65560      17.5033 
0.000115663      7.01271      62.8537 
-0.000357327      13.7150     -132.696 
0.000237835      9.16379     -13.2499 
6.55854e-05      9.00272      113.432 
-2.27163e-05      9.99180     -95.8579 
8.62995e-05      9.65105      110.499 
-2.26641e-05      6.90155      134.295 
-0.000101726      12.3109     -139.348 
-4.23750e-05      7.26703     -177.479 
-4.36987e-05      8.90298      146.451 
-6.35071e-05      10.0915     -6.82856 
8.23719e-05      9.48764      114.404 
-8.39901e-05      9.89253      174.083 
-0.000149371      12.3526     -37.4992 
0.000264663      12.3879     -34.4091 
0.000176936      9.52557     -10.0352 
0.000217519      12.6487      126.253 
-0.000193730      12.1190     -128.837 
4.27248e-05      6.24831     -10.7000 
0.000135778      12.4726     -132.335 
4.33359e-05      2.49737     -114.101 
-8.34487e-05      6.67992      75.2597 
4.33901e-05      9.43358     -168.381 
4.35868e-05      10.6890      158.715 
-2.21514e-05      7.72463     -85.3977 
0.000219745      13.5935      43.8683 
6.38797e-05      9.96817     -142.992 
-9.32917e-05      11.6878      56.7986 
0.000132650      7.99626      62.9204 
0.000183434      14.0015      135.695 
0.000338149      9.33982     -97.5064 
2.18757e-05      6.69364     -137.058 
-0.000306792      11.5268     -44.2246 
-0.000119120      7.96815     -38.6842 
2.18217e-05      8.31595     -36.7903 
-2.18376e-05      9.84939     -19.5766 
-4.09021e-05      4.75149     -99.9398 
-0.000129069      9.14231     -156.126 
4.16181e-05      9.42565     -168.618 
-2.16007e-05      7.15951     -82.6173 
4.22367e-05      3.78012      31.5919 
0.000168978      10.2867      23.1256 
2.14505e-05      10.0066      19.3752 
-0.000178042      10.8768     -58.7664 
8.27303e-05      12.6635      50.7039 
-9.43220e-05      4.41259      45.3720 
-4.17073e-05      12.3200     -129.399 
-0.000166021      9.97449     -95.9851 
0.000381099      13.5147     -139.260 
-5.99032e-05      5.51341      141.926 
2.12497e-05      2.96443      97.3589 
-4.07014e-05      11.7560     -131.828 
2.11128e-05      11.0112     -117.356 
2.11387e-05      9.87151      111.887 
-9.58561e-05      11.8159      55.6933 
8.04610e-05      10.1443      75.0304 
0.000149771      8.86079     -53.9084 
-4.10903e-05      8.49225     -53.4288 
2.10083e-05      6.86114     -62.3868 
-2.09764e-05      10.6912     -124.789 
-4.06415e-05      10.2115      131.905 
0.000143138      8.51100     -87.0385 
2.08422e-05      10.7023     -72.3768 
-4.13039e-05      6.63588      176.025 
-2.07534e-05      6.85168      19.9670 
0.000163011      11.6763      41.3889 
3.94807e-05      10.0140      77.0749 
3.95993e-05      11.3329      63.0278 
-0.000113106      12.4760      53.2748 
5.63394e-05      9.78366      14.3208 
-9.50494e-05      6.63663     -112.314 
2.05116e-05      11.2330      121.085 
7.74123e-05      8.33218     -36.7068 
-5.88229e-05      12.3372      136.708 
5.72550e-05      7.77961     -99.1689 
2.04333e-05      8.44028      53.6741 
0.000168810      10.5183     -158.703 
-3.89028e-05      11.2641      30.7543 
-0.000128368      7.02809     -22.7704 
-2.03547e-05      10.1470      132.842 
-5.89012e-05      10.7092     -131.668 
-7.50295e-05      4.80266     -60.0219 
-3.92351e-05      8.40979      140.405 
-0.000318224      9.44463      15.9798 
5.85431e-05      10.7079      158.754 
5.69292e-05      10.4437     -70.4207 
-2.02342e-05      8.91987      146.522 
2.02580e-05      9.14017     -13.1543 
-2.01402e-05      8.92761      84.0853 
-0.000115062      13.5759     -47.5672 
2.01287e-05      6.85177     -62.5369 
-7.54716e-05      12.2094     -49.1844 
-5.86131e-05      12.7791     -138.425 
3.97215e-05      11.2943     -51.1815 
2.01069e-05      8.98038      120.222 
-5.79195e-05      8.19155     -121.828 
-0.000115351      6.61566      176.013 
3.94124e-05      9.69581     -71.9759 
3.90609e-05      2.93948      96.6406 
-0.000113905      11.5179      28.5253 
-0.000129723      13.8777     -133.541 
-3.84009e-05      9.18390      96.7522 
5.67384e-05      6.61004     -153.205 
-1.99109e-05      11.8691      133.565 
0.000152602      12.0478      47.6252 
7.36766e-05      8.98414      113.484 
-0.000159711      11.9876     -54.5082 
-0.000133512      12.3965     -37.4616 
5.79920e-05      9.83793      111.716 
1.98430e-05      10.5372     -39.7648 
0.000181073      10.4652     -153.435 
-3.77938e-05      9.57381      141.192 
5.65778e-05      11.0022     -117.266 
1.97364e-05      6.70848     -137.176 
5.75382e-05      9.89191     -142.806 
-1.96716e-05      7.95659     -143.796 
5.61826e-05      11.5561      118.872 
1.96329e-05      9.18352     -13.2210 
1.96557e-05      10.7082     -72.2774 
-5.72150e-05      12.3301     -129.605 
1.95198e-05      5.57818      108.827 
-1.95627e-05      10.2663      30.5594 
-0.000109643      10.1608      132.926 
1.94962e-05      10.6142      137.137 
-0.000137853      5.96694      20.1943 
1.94334e-05      10.1253     -18.5424 
1.94403e-05      6.83352     -62.8328 
0.000179362      12.3372      133.292 
5.67412e-05      12.6758      50.6357 
-0.000219199      10.2886     -10.9821 
5.59866e-05      10.5973      70.0266 
-3.63131e-05      9.53014     -21.9338 
-1.92503e-05      6.83335      20.0229 
-3.75416e-05      11.2007      44.7096 
3.74071e-05      3.78687      31.1701 
0.000120847      6.63000     -58.9439 
1.91574e-05      8.04147     -113.762 
-0.000170222      10.9754      44.2604 
0.000270857      10.1510     -18.6144 
3.72148e-05      11.3720      145.751 
0.000193971      12.0342      47.6965 
5.48886e-05      9.68426      110.682 
-1.88943e-05      8.38092     -90.6823 
-0.000122620      4.19061     -132.293 
-6.91177e-05      9.91268      174.095 
3.66981e-05      7.78326      10.2125 
-8.77830e-05      10.6641      57.5613 
3.56378e-05      4.13276     -94.4362 
-8.45412e-05      13.3259      49.0162 
-5.33043e-05      9.98323     -60.8668 
-3.60283e-05      10.1140     -6.92887 
1.87589e-05      10.7883     -138.985 
-5.43046e-05      7.97234     -143.879 
7.16520e-05      9.44864     -168.525 
0.000185283      10.1506     -42.3634 
0.000157352      9.63005      106.780 
-5.41845e-05      12.6372     -129.862 
7.15612e-05      6.78890     -63.2084 
0.000186481      13.9734      135.694 
5.33074e-05      9.48381     -144.702 
1.85081e-05      10.5528     -39.6945 
5.35242e-05      9.68956     -72.0898 
-1.84841e-05      5.15699     -166.769 
-1.84531e-05      9.64945      73.2547 
1.84365e-05      9.53530      64.1327 
0.000182508      12.0353      122.239 
-1.83776e-05      9.57460     -21.9573 
3.52050e-05      9.73232     -46.3340 
1.83466e-05      9.06392      17.5934 
-0.000136595      9.15553      125.217 
-3.57756e-05      9.32852     -108.240 
1.83037e-05      10.9353     -60.5272 
-1.83147e-05      11.7695     -131.901 
-5.29533e-05      11.6000      55.3241 
0.000120129      6.30826     -55.1984 
-6.86146e-05      10.6293     -145.501 
0.000115474      10.8455      60.5049 
5.30704e-05      10.2793     -128.363 
1.82570e-05      6.73771     -137.406 
3.52687e-05      10.0193      19.2315 
-5.21036e-05      11.9953     -48.0402 
-0.000202063      6.63731      175.851 
0.000166369      10.7730     -138.914 
0.000101857      10.7521      158.734 
-8.19615e-05      12.3230      136.646 
-0.000296105      12.4409     -37.4222 
-8.62000e-05      13.8637     -133.480 
3.53280e-05      9.58852     -85.5745 
-0.000147436      7.36333     -19.5152 
-1.80221e-05      12.6842      53.5280 
8.38194e-05      10.1494      74.9240 
8.30309e-05      6.80150     -156.977 
8.68636e-05      12.7269      50.3562 
-5.28925e-05      12.6247     -129.794 
5.04022e-05      10.1088      40.9095 
6.73090e-05      9.88376      1.50526 
-0.000228759      10.2476     -92.2368 
-0.000103217      10.7837     -108.938 
5.17866e-05      10.6003     -126.871 
3.57154e-05      11.4522      50.5275 
-8.26943e-05      10.6957     -124.640 
5.11458e-05      9.80514      111.542 
-5.08326e-05      4.25159     -41.1859 
-8.28837e-05      6.64435     -112.476 
0.000179291      12.4402     -36.5036 
-0.000133246      8.01140     -38.6154 
-6.57682e-05      9.09516      99.8765 
-3.35617e-05      7.89844      47.4641 
0.000151317      9.65620      69.7639 
0.000131670      10.4994     -158.663 
-0.000179420      13.6045     -47.5618 
-3.42840e-05      10.1730      174.132 
-1.77655e-05      10.2488      30.6170 
-0.000147059      8.37817      57.6764 
-1.77365e-05      10.6963     -131.590 
9.90903e-05      11.4625     -125.770 
-3.40131e-05      12.2949      136.647 
-3.38238e-05      6.02449      53.7795 
1.76316e-05      4.11590     -95.0204 
0.000148376      10.0581     -3.42168 
5.01928e-05      9.54383      64.0273 
1.76081e-05      9.87638     -142.737 
3.45919e-05      7.96979      162.476 
-6.54984e-05      4.74803     -99.6990 
-0.000114522      11.5357      28.4772 
-4.98591e-05      12.3132     -139.481 
0.000165961      11.4366      50.4630 
4.89352e-05      10.6566      137.206 
0.000129726      6.77979     -63.3612 
5.10876e-05      6.64603     -169.770 
-8.09908e-05      10.1023     -17.3959 
-0.000130515      9.08103     -34.3191 
8.19257e-05      11.7486     -145.824 
3.40186e-05      11.1728      145.427 
-1.74209e-05      11.9252      50.0338 
-3.38024e-05      12.0136      130.610 
-5.08533e-05      12.3612     -135.657 
-8.02646e-05      9.16490     -120.708 
8.22340e-05      8.36009     -36.7310 
-1.73223e-05      7.03069      144.724 
-1.73259e-05      9.35777     -80.1562 
-1.73316e-05      12.3270     -129.735 
3.39375e-05      10.5852      69.8861 
1.72307e-05      10.8631      60.5575 
-0.000241137      10.3078     -10.9615 
3.41405e-05      6.76704     -137.634 
1.72400e-05      10.7788      154.150 
-4.89390e-05      10.8873     -58.6753 
-1.71858e-05      9.34020     -27.8250 
-3.36134e-05      11.1863      44.7826 
-0.000112196      12.1317     -128.912 
1.70946e-05      9.86026     -142.666 
3.30998e-05      10.4287      124.057 
-0.000160271      10.6987      163.158 
1.70845e-05      9.69117      110.790 
-8.03481e-05      9.96712      177.817 
1.70439e-05      11.6029      119.083 
4.91241e-05      9.54628      54.3759 
0.000130929      12.3097      133.288 
-4.88424e-05      9.10998      103.976 
-6.55707e-05      12.3400     -129.807 
-1.70170e-05      12.2221     -49.1152 
-1.69806e-05      11.7977     -131.906 
-0.000144636      10.1322      132.920 
1.69819e-05      6.59196     -153.126 
3.23830e-05      9.20771     -13.3103 
3.20418e-05      12.5454      45.8409 
-1.68737e-05      8.03600     -133.384 
3.21077e-05      9.59010     -85.4538 
3.24326e-05      10.4188     -70.4858 
-0.000114043      12.6217     -129.921 
-1.68230e-05      7.28727     -177.486 
-4.86632e-05      7.39554     -67.2518 
-1.67335e-05      12.4844     -37.3823 
1.67479e-05      11.5069     -51.7767 
9.66473e-05      11.7713      119.745 
-4.85471e-05      7.98872     -143.964 
-4.74797e-05      4.28537      45.5675 
3.26361e-05      12.6478      50.6458 
-7.88386e-05      8.04923     -133.693 
6.39204e-05      7.36799      58.7690 
-4.82660e-05      11.9232      49.8989 
-6.41267e-05      11.9598     -54.5279 
-6.32433e-05      10.6746      57.4729 
1.65931e-05      10.8950      152.683 
-6.47174e-05      11.5889      55.4034 
-4.88730e-05      8.56345      18.5207 
4.86111e-05      11.8797     -129.397 
6.35664e-05      10.2760     -128.522 
-3.21795e-05      9.31637     -108.396 
-1.65352e-05      8.43102     -67.6967 
0.000110395      12.7368      50.1603 
4.75511e-05      13.3366     -45.4240 
4.77521e-05      8.99789      120.157 
-1.65392e-05      10.6828     -131.509 
4.75325e-05      9.50636     -10.0557 
1.64775e-05      10.9930     -117.172 
7.92509e-05      11.0903     -65.6061 
1.64656e-05      8.37398     -168.986 
6.30548e-05      10.9293      38.6113 
3.19532e-05      5.45724      31.3623 
-3.21868e-05      3.81944      152.896 
9.40060e-05      8.11828     -50.9010 
-3.23262e-05      13.9759     -43.7230 
0.000142383      9.63570      106.891 
7.85576e-05      10.4826     -153.483 
-7.83234e-05      9.57955      98.2824 
-3.21399e-05      4.67099     -6.64208 
-0.000109146      10.7901     -108.703 
-4.78125e-05      7.04608     -22.7090 
3.20795e-05      10.3515     -165.911 
-4.72154e-05      9.81842     -93.5053 
-4.76641e-05      10.1358     -7.02505 
4.70935e-05      6.04251      42.9921 
1.62613e-05      7.78286     -99.3161 
1.62287e-05      6.78202     -137.749 
7.83981e-05      6.66523     -169.800 
-7.86207e-05      4.19206     -131.902 
-6.30395e-05      10.8901     -150.515 
-1.61386e-05      11.8106      55.5567 
1.61434e-05      11.7376     -145.903 
3.12842e-05      9.70419     -46.3347 
1.61383e-05      7.35753      112.031 
-4.70254e-05      12.4877      53.2031 
1.61080e-05      7.32421      106.010 
1.61163e-05      11.2165     -123.435 
-1.60854e-05      12.1808     -49.1943 
-4.68644e-05      10.2046     -61.1733 
-6.24882e-05      9.18377      125.247 
3.13471e-05      10.9396      152.684 
-6.29721e-05      12.6347     -129.991 
-4.66761e-05      10.1932      174.144 
7.78913e-05      7.28928     -144.042 
3.13609e-05      9.77146      111.365 
-4.65060e-05      12.3752     -135.720 
-4.63404e-05      7.15836      20.6102 
4.64211e-05      5.96397      164.238 
-3.11069e-05      13.8910      46.2848 
1.58571e-05      11.1285      145.397 
-4.63632e-05      12.0083     -47.9710 
-3.12343e-05      12.0416      130.623 
-3.09062e-05      10.1908      146.932 
4.64821e-05      11.3648     -59.7798 
4.64337e-05      8.37130      130.350 
-4.64227e-05      9.00439      36.6923 
3.10351e-05      12.4863     -132.404 
-3.11164e-05      7.66007     -33.6060 
3.08958e-05      9.52024      157.261 
-4.64839e-05      13.9900     -43.6678 
1.57647e-05      3.76954      31.3295 
1.57280e-05      8.15921     -79.4062 
-3.08161e-05      11.1074     -124.806 
-3.08561e-05      10.6694     -131.427 
4.61543e-05      10.2761      23.2739 
1.56440e-05      8.74772      153.668 
3.08138e-05      10.9321     -20.7899 
-1.55687e-05      11.6294     -60.0850 
-1.55671e-05      12.1522     -49.2041 
1.55516e-05      11.4334      50.3230 
3.06725e-05      12.2810      133.284 
7.63831e-05      9.64423      69.6094 
-4.60143e-05      11.5775      55.4859 
3.08251e-05      13.6335      44.4046 
1.55245e-05      9.27384     -141.129 
-3.05814e-05      8.98221      131.573 
3.07126e-05      13.5279     -139.195 
-4.59344e-05      8.54424      18.5638 
1.54808e-05      11.8819     -129.262 
1.54787e-05      10.7965      158.710 
1.54800e-05      6.33603     -55.1581 
1.54765e-05      11.2054     -123.348 
1.54435e-05      12.6208      126.236 
3.06064e-05      12.8458      142.273 
1.54301e-05      8.95749      113.417 
-1.54370e-05      13.8916      46.3986 
4.57691e-05      11.4184      50.2605 
3.04009e-05      8.37573     -36.6512 
-4.56225e-05      8.00511     -144.050 
1.53967e-05      12.2382      133.343 
-1.54312e-05      10.1310     -11.1551 
-3.04880e-05      13.6726      138.498 
1.53124e-05      10.8051     -116.136 
1.52599e-05      6.79703     -137.864 
1.52419e-05      9.77886      111.476 
-1.52161e-05      12.3380     -129.937 
-1.51492e-05      5.95498      20.4445 
3.01763e-05      9.66692      107.086 
1.51515e-05      8.56745      98.1876 
-1.51192e-05      10.9154     -150.712 
1.51132e-05      12.6088      126.162 
-3.00974e-05      12.6192     -130.050 
1.50886e-05      9.75975      14.2339 
1.50897e-05      9.48840     -66.7865 
-1.50656e-05      7.26795     -177.319 
1.50859e-05      9.82475     -151.820 
1.51014e-05      13.4959     -133.560 
1.50606e-05      10.7094      72.6163 
-1.50561e-05      8.93678      146.594 
-1.50411e-05      6.61710      175.838 
1.50608e-05      8.13206     -79.6554 
1.50545e-05      13.9595      135.638 
1.50198e-05      8.38675      130.260 
1.49590e-05      7.27289     -143.948 
! Tentative model.
! Flux (Jy) Radius (mas)  Theta (deg)  Major FWHM (mas)  Axial ratio   Phi (deg) T \
! Freq (Hz)     SpecIndex
-1.85392e-05      12.8240     -138.604 
