! Center RA: 12 21 31.69053,  Dec: +28 13 58.50012 (2000.0)
! Established model.
! Flux (Jy) Radius (mas)  Theta (deg)  Major FWHM (mas)  Axial ratio   Phi (deg) T \
! Freq (Hz)     SpecIndex
 0.0406783      0.00000      0.00000 
 0.0560767    0.0202604     -90.0000 
 0.0250760    0.0202604      180.000 
0.00126631    0.0286526      135.000 
0.000301370    0.0446338      116.996 
0.00413924    0.0828082      104.162 
0.00438154    0.0286526     -135.000 
 0.0126858     0.101837      101.476 
0.00226630     0.120062      90.0000 
0.00116120    0.0446338     -153.004 
0.00110402     0.204262      78.7726 
0.00586971    0.0562440     -135.000 
0.000264396     0.201375      84.2257 
0.00589286     0.223431      79.7468 
0.00129449     0.121759      99.5784 
0.00259556     0.220795      84.7351 
0.000612044     0.116465     -148.973 
0.00217751     0.161670     -150.222 
0.00273356    0.0286526     -45.0000 
0.000253026     0.243395      80.5958 
0.000250338     0.315980      124.747 
0.000632432     0.178866     -153.327 
0.000364136     0.227911      105.272 
0.00105261     0.170734     -159.414 
0.00101165     0.234065      110.062 
0.000495976     0.141777      98.2159 
0.00111369     0.152624     -156.838 
0.00255373     0.878166      120.049 
0.000837011     0.260038      112.569 
0.000441401    0.0998015      90.0000 
0.00191800     0.134233     -153.435 
0.000253791     0.268467      116.565 
0.00114401     0.690733      112.079 
0.00166457     0.905232      120.540 
0.00128747     0.295127      118.390 
0.000351382     0.984607      102.903 
0.000540664     0.989328      104.047 
0.000162070    0.0802914      90.0000 
0.000762435     0.965599      103.161 
0.000635383      1.74678      129.894 
0.000545714     0.683639      110.563 
0.000531752      1.72869      138.749 
0.000692228     0.922740      119.901 
0.000666811     0.332828      122.759 
0.000821980     0.970413      104.326 
0.000245921     0.344213      125.596 
0.000378784     0.651397      107.913 
0.00126074      1.73129      130.324 
0.000461826      1.75728      138.687 
0.000919295     0.503350      96.8496 
0.000591985     0.940357      119.286 
0.00126497     0.369026     -102.567 
0.000272897     0.388092     -101.940 
0.00264929     0.365154     -99.4623 
0.000534141      1.96948      131.293 
0.000533783     0.975424      105.437 
0.000203227     0.372066      126.223 
0.000337748      1.74212      138.248 
0.000741406     0.947854      117.640 
6.78827e-05      1.93039      140.046 
0.000902815      1.94596      140.429 
6.36089e-05     0.240977      85.1771 
0.000121753     0.384386      128.660 
0.000363975    0.0446338     -26.9958 
0.000780796     0.800901      87.1537 
0.000352112     0.266484      76.9812 
0.000283301     0.645453      106.202 
0.000175674     0.981011      106.578 
0.000177464     0.965848      117.083 
0.00420333      4.78961      106.998 
0.000772907     0.400469      177.100 
0.00152301      2.87981      127.664 
0.00113632     0.271765      72.8159 
5.56383e-05     0.443026      71.5344 
0.000700280     0.781960      85.5971 
0.000205066     0.975367      115.520 
0.000158272      2.41890      119.738 
0.000154402      2.13685      133.107 
0.000149196     0.461573      72.3015 
0.00111033      2.44590      119.924 
0.000276176     0.957123      116.043 
0.000655691      1.71824      129.809 
0.000243664     0.304887     -121.617 
0.000145379     0.640096      104.460 
4.76510e-05      2.15023      133.487 
0.000300380      2.17887      133.507 
0.000725491      1.72761      137.817 
4.57241e-05     0.984607      113.967 
0.00142196     0.300155     -126.870 
0.00214417      2.89224      127.982 
0.000167472     0.635505      102.756 
0.000162951     0.467874      70.0247 
4.39568e-05     0.987971      111.381 
0.000684143     0.422095      174.593 
0.00112932      2.68039      127.733 
0.000665259      2.98069      125.719 
0.000214207     0.976552      112.881 
7.87794e-05     0.247514      75.9638 
0.000322137     0.620320      69.2412 
7.64140e-05     0.966811      114.437 
0.000413309      2.19287      133.891 
0.000459773      2.32957      105.948 
0.000223166     0.253192      71.5114 
0.00126381      2.99212      126.022 
3.49607e-05     0.938962      116.586 
0.00114235      2.32408      105.468 
0.00124728      9.16034      115.612 
3.18448e-05     0.475177      67.7281 
0.000198835     0.627787      67.5118 
0.000157836     0.969133      111.818 
0.000276470     0.780666      87.0798 
3.02478e-05     0.948403      114.943 
0.000815284      8.43084      106.112 
0.000103624     0.551483      136.489 
0.000162799      2.45570      120.318 
0.000729658      6.01517      103.851 
0.000559802      6.27572      101.952 
0.000128899      2.20644      134.256 
0.000156873     0.278155      68.9736 
0.000533869      9.42285      105.510 
0.000329694      9.42828      105.629 
0.000409227      5.05103      119.406 
0.000348965     0.973929      109.161 
0.000368494      2.57483      133.111 
0.000125971      1.70273      130.245 
0.000376381     0.260038      67.4310 
2.58050e-05     0.903572      117.714 
0.000157304     0.420705      177.240 
0.000122281      8.27273      105.278 
7.33033e-05     0.800169      88.5491 
0.000271001      2.13099      99.7310 
0.000313399      4.16008      124.223 
0.000321144      2.66166      97.3374 
0.000389735      6.90188      107.018 
0.000131294      4.50964      109.156 
0.00136733      4.78372      106.766 
0.000155753     0.315980     -124.747 
0.000183309      8.24806      105.184 
0.000543256      5.04340      119.720 
6.65345e-05      7.96558      106.934 
0.000140556      1.71589      130.762 
8.56141e-05      4.53544      109.313 
8.61585e-05      2.22062      134.630 
2.22138e-05      1.96162      140.806 
0.000270643      2.57644      132.486 
8.06656e-05     0.523357      136.510 
0.000136322      1.71265      137.362 
0.000227678      4.32357      112.296 
0.000348661      7.94620      106.977 
2.10078e-05      2.67180      149.409 
0.000734230      2.68926      149.628 
0.000329441      2.14692      99.1101 
0.000224700     0.268467      63.4349 
0.000688782      2.69237      128.061 
3.97848e-05     0.483220      65.5045 
0.000115464     0.312731     -129.841 
0.000864787      7.37187      113.504 
0.000147083      2.20625      135.000 
0.000748823      2.71634      149.468 
5.75717e-05      8.42544      105.985 
0.000327269     0.327950     -127.657 
1.94395e-05      2.76067      97.0729 
0.000266061      2.75825      96.6552 
0.000356957      5.35919      117.810 
0.000108793      8.13022      116.752 
3.55484e-05      8.14832      116.688 
0.000629705      7.07255      99.2744 
0.000501076     0.465536      64.5089 
0.000248795      8.11928      101.364 
0.000289572      8.91867      117.369 
4.92376e-05      2.33853      104.875 
0.000834820      2.50364      77.0800 
0.000296547      8.25319      105.315 
1.74648e-05     0.617068      65.1178 
0.000663555     0.286050      65.1829 
0.000132477      7.93936      118.762 
3.41434e-05      1.72644      136.867 
0.000204458      2.22062      135.370 
1.67699e-05      1.71407      131.681 
0.000310747      1.71171      136.403 
0.000563173      9.45181      123.521 
6.25428e-05     0.967701      108.070 
0.000101120      4.97240      103.252 
0.000524213      8.11546      101.229 
0.000160685      1.72761      132.183 
0.000281002      2.75606      96.2523 
1.61759e-05      7.93203      109.439 
0.000158677      2.28266      98.0502 
0.000191336      6.01035      103.663 
7.72238e-05      4.17685      124.067 
0.000278967     0.392593     -104.727 
0.000436813      7.96651      118.815 
0.000217736      2.14381      98.5754 
0.000305561      7.95192      107.111 
0.000585049      4.96797      103.033 
7.22526e-05      2.56438      131.512 
2.99565e-05     0.420217      180.000 
1.54319e-05      8.15744      116.815 
5.81550e-05      4.34903      112.437 
0.000278321      5.03555      120.027 
4.24005e-05      6.88323      107.066 
8.39581e-05     0.357396      26.5651 
0.000203137      4.14914      124.000 
0.000539958      2.88946      128.537 
0.000415852      2.34361      105.336 
0.000442373      4.63270      104.761 
0.000348084      8.42161      114.555 
0.000220701      8.69396      116.508 
0.000442440     0.325575     -132.478 
1.39754e-05     0.961610      106.922 
1.39739e-05      7.09583      99.4095 
0.000835457      7.09255      99.2481 
0.000362452      2.69578      123.809 
0.000193786      6.67798      98.7839 
0.000345733      2.70611      149.837 
0.000107479      6.66183      98.9817 
0.000261877      2.77620      96.2068 
0.000448934      5.98607      103.528 
0.000162831      2.73381      149.684 
0.000230696      5.36832      117.994 
0.000279030     0.349107      23.6999 
0.000325217      8.11154      101.089 
0.000147114      5.94614      119.409 
0.000317567      2.28001      97.5647 
1.29040e-05      4.50328      108.921 
6.13307e-05      4.18317      110.431 
0.000128381      8.21455      100.378 
0.000149243      2.23455      135.721 
8.34234e-05      1.72644      133.133 
8.65935e-05      9.15192      115.502 
0.000111225     0.398226     -107.547 
0.000538215      9.46301      123.623 
0.000262327      8.70269      116.622 
0.000388609      5.02887      120.338 
5.40464e-05      2.12766      99.1932 
2.28780e-05      4.17614      110.170 
0.000226129      8.23365      105.352 
0.000138062      4.16595      123.845 
0.000214758      1.71126      135.480 
8.02467e-05      6.88920      107.227 
0.000217902      4.19516      110.075 
3.95364e-05      9.41765      105.396 
0.000105901      4.76433      106.837 
9.26450e-05      7.99403      118.872 
7.90102e-05      6.67503      98.6183 
0.000172436      7.93856      107.294 
5.14990e-05      8.02663      100.188 
0.000263080      2.52266      77.1791 
0.000260467      6.42922      112.494 
4.04165e-05     0.449253     -122.310 
0.000161593     0.665001      43.7656 
0.000123806      6.65870      98.8095 
9.40503e-05      2.24910      136.081 
7.14693e-05      8.92800      117.485 
0.000118443      8.02320      100.051 
0.000140100     0.459977     -124.364 
3.69302e-05      4.27227      122.571 
7.34432e-05      7.97630      118.943 
7.68162e-05      4.25521      122.718 
0.000104560      2.77408      95.7908 
0.000184970      5.96380      119.313 
0.000112284      2.41230      78.0434 
0.000119347      9.25611      122.112 
9.49345e-05      8.69369      116.802 
6.94548e-05      2.96891      125.401 
5.06587e-05      8.21822      100.517 
5.86359e-05      7.36381      113.360 
6.65639e-05      4.96344      102.805 
8.28132e-05      8.47053      116.808 
-0.000182522      8.41890      107.705 
5.77810e-05      9.05176      116.790 
5.75349e-05      8.45030      106.074 
3.31207e-05      8.00384      118.999 
4.88790e-05      2.26374      136.437 
6.50694e-05      1.33812      99.4570 
2.44235e-05      2.65438      149.186 
4.02204e-05      2.52724      76.7312 
7.86052e-06     0.474259      62.3808 
0.000965730      8.73976      135.372 
0.000726134      6.61937      140.391 
0.000421957      4.98018      142.666 
0.00129434      5.89654      148.737 
0.000187644      8.75400      135.278 
0.000365312      4.96468      142.529 
0.000138033      4.96792      142.851 
0.000368633      8.67409      136.963 
2.73091e-05      8.93873      135.724 
0.000117363      6.63500      140.502 
0.000164617      8.95325      135.815 
0.000209552      6.65001      141.713 
6.63068e-05      8.68793      136.865 
6.60146e-05      5.91323      148.835 
0.000106737      4.96957      141.696 
4.37544e-05      6.63183      140.261 
0.000127545      4.26619      122.947 
2.10181e-05      9.29444      122.253 
4.13681e-05      8.24305      107.072 
2.05868e-05      3.99643      121.705 
2.03073e-05      8.03864      118.862 
0.00104073      6.79861     -120.791 
0.000561529      6.82536     -120.848 
-0.00131771      10.3328      13.2026 
0.000861569      9.90763     -168.825 
0.000611202      6.77257     -25.3555 
-0.00174918      12.6205     -133.330 
0.000522991      5.31639      20.4813 
0.000418187      11.1072     -51.0657 
0.00121332      4.51115     -166.151 
0.000938568      7.08078     -130.306 
0.000773582      7.49716     -79.8598 
-0.000737930      4.26180     -144.748 
0.000199761      7.93977     -147.552 
-0.000198967      8.98714     -18.9584 
-0.000385653      12.7312     -47.9935 
-0.000652279      9.48641     -169.923 
-0.000717725      8.69969     -53.1311 
-0.000633364      6.30585     -162.085 
-0.000194226     0.381773      95.9795 
-0.000628107      5.60807     -165.121 
0.000538223      7.33191     -107.296 
-0.000890482      5.31882     -22.3208 
0.000792925      11.1200     -50.9845 
0.000353605      2.70577      41.7061 
-0.000336397      3.25089      156.435 
-0.000353145      12.7321     -48.1200 
-0.000440578      11.8333     -58.9702 
-0.000604131      5.30191     -104.190 
0.000437154      5.33467      20.4080 
-0.000698905      8.97531     -19.1212 
0.000188099      10.4126     -15.3703 
0.000525561      9.85153     -140.849 
0.000174777      7.95066     -147.429 
0.000430424      4.40848     -119.938 
-0.000509308      3.61637     -84.6064 
-0.000350451      12.8431      133.989 
0.000347823      12.0424      146.653 
9.23632e-05      3.17989      9.04221 
-0.000269842     0.380236      93.0544 
0.000174663      7.09483      3.71733 
0.000341871      9.59462      151.352 
0.000753006      10.4261     -15.2345 
0.000179938      13.3081      135.062 
-0.000257250      6.97491     -57.7718 
-0.000257340      6.20435      177.782 
0.000257925      9.18621     -35.6960 
0.000173122      7.10885     -130.321 
0.000504899      5.81411     -121.064 
-0.000420381      10.7673     -24.4717 
0.000592013      7.30199     -178.587 
0.000253796      7.13324      3.53423 
-0.000579607      4.36437      67.0808 
-8.83679e-05      3.83633     -36.0966 
-0.000332794      13.0538     -48.7896 
-0.000496085      3.25904      156.109 
0.000330875      2.56416     -93.1370 
-8.67316e-05      11.3253      117.560 
-0.000409213      7.81918      150.419 
0.000409088      13.3219      135.121 
-0.000330206      11.0798      57.4562 
-0.000407752      7.28071      107.589 
-0.000322651      11.3326     -36.2447 
-0.000166283      6.96419      28.8489 
-0.000322161      9.50636     -169.944 
-0.000245879     0.400469      92.8999 
-0.000242747      12.5724     -38.3474 
-0.000164077      11.3347      117.651 
0.000343250      5.13474     -78.9971 
0.000238870      4.64753      58.9125 
-0.000161886      5.81621     -170.697 
-0.000160479      4.51115      166.151 
8.23979e-05      9.56696     -132.797 
-0.000240448      3.66495     -46.9829 
0.000240212      4.30519      114.421 
0.000237600      14.3687     -135.451 
-0.000236514      10.1883     -173.347 
-8.07684e-05      9.55860      168.902 
-8.04723e-05      12.0283     -37.3646 
8.03128e-05      10.4201     -103.315 
0.000157038      10.2590     -97.9547 
-7.92746e-05      9.29345     -19.8776 
-0.000155713      10.1068      161.422 
7.89817e-05      5.86439      14.4185 
7.88904e-05      12.5310      135.648 
0.000155516      8.41499     -59.9002 
7.89761e-05      6.86495     -2.16746 
-7.85769e-05      9.14280     -42.6950 
7.84698e-05      6.90304      13.2341 
7.82083e-05      9.48032      37.1121 
7.81698e-05      11.3781     -58.2942 
7.78072e-05      9.67348      44.8334 
7.76883e-05      13.6498      136.127 
-7.75678e-05      10.9871     -59.8416 
-7.74545e-05      13.6189     -132.383 
7.74153e-05      7.49362     -80.0123 
7.74108e-05      2.08794      36.4210 
7.68994e-05      10.3553     -157.397 
-7.67500e-05      8.96351      172.177 
-7.67493e-05      6.50938      150.755 
7.65640e-05      4.22340      158.902 
-7.64667e-05      3.11449     -165.873 
-0.00164720      9.66481     -73.7784 
0.000137315      10.0324     -92.8553 
-0.000659955      12.5502     -38.6598 
0.000350544      10.0334     -92.9709 
0.000548926      11.6732      28.8915 
0.000235667      12.6312     -136.090 
-0.000384400      6.35675     -36.0393 
0.000340757      8.75700     -60.7399 
0.000611932      11.3718     -28.0058 
-0.00137925      10.5990     -159.684 
-0.000156061      9.00350     -84.3897 
0.000390996      8.44104     -61.2477 
0.000103871      4.84263      1.89141 
0.000150404      3.52443     -22.3496 
0.000202834      11.9383     -55.5098 
-0.000362947      8.71216      106.812 
-5.35593e-05      10.6250     -159.620 
-5.32458e-05      5.03799     -98.6780 
0.000138025      8.43131     -61.3684 
-0.000201828      5.70498     -125.584 
-0.000307355      9.25139      151.884 
-0.000100327      11.5453      119.584 
-0.000364392      7.17008     -28.8531 
9.89883e-05      7.12001      62.9300 
-5.04118e-05      10.4304      109.373 
-9.40561e-05      4.66004     -32.7330 
0.000357860      12.7521     -137.225 
-9.38948e-05      7.80397     -91.7632 
-0.000139532      5.03498     -98.4501 
0.000394445      8.74711     -60.8556 
0.000184214      12.9917     -132.879 
9.67109e-05      12.7824      127.947 
4.91331e-05      9.88035      180.000 
0.000792022      9.72970     -92.5903 
-9.14338e-05      10.9228      25.4842 
0.000168161      6.90704      78.9831 
-0.000218487      9.67049     -73.6631 
-0.000333308      7.78765      167.394 
0.000409545      6.04034     -30.2154 
-0.000303178      5.68912     -125.698 
8.94843e-05      9.65444      15.1294 
0.000997221      12.7664      128.003 
-0.000255870      8.30198      1.24300 
-4.60968e-05      3.85927     -11.6551 
0.000171508      9.89986      180.000 
-0.000168721      6.13075      86.6319 
-4.55674e-05      9.18032     0.248215 
-4.53749e-05      10.4840      15.1483 
4.53680e-05      10.4337     -66.3848 
0.000254990      5.46880     -79.6769 
-0.000203704      8.95393      124.718 
0.000245284      7.56032      8.36655 
4.45450e-05      11.9268     -55.5901 
-0.000330039      10.4652      15.1762 
0.000200624      9.63561      15.1596 
-0.000348130      7.10171      133.403 
-8.41105e-05      11.5177      119.546 
-0.000272718      12.0079     -45.8760 
0.000187456      11.6597     -54.5639 
4.30717e-05      7.10198      62.8556 
-0.000193716      11.1945     -114.823 
-0.000160986      8.30496     -147.190 
0.000491939      12.1266     -56.9137 
-4.27529e-05      12.5660     -38.6021 
4.27929e-05      5.78564      34.2919 
0.000202159      3.91494     -82.3669 
-0.000264056      9.68034     -119.319 
0.000379785      6.87360     -166.367 
-0.000742175      10.1453     -128.676 
-4.19692e-05      9.16006     0.248764 
-0.000251353      11.1365      25.8761 
-8.08653e-05      5.30931     -97.7980 
-0.000363332      12.5534     -38.5298 
-7.86042e-05      8.14801     -26.3763 
0.000504766      2.75817      150.464 
-4.09270e-05      6.37253     -35.9361 
-4.06746e-05      6.18515     -61.1993 
-4.04231e-05      7.37674      86.1154 
4.02267e-05      9.84885      16.1511 
0.000521217      12.7664     -137.284 
4.01102e-05      13.0050     -132.942 
-0.000106034      11.5274      55.6768 
0.000185444      9.74977     -60.9098 
0.00109253      13.7066      136.242 
3.93196e-05      9.42356      37.0643 
-0.000136898      7.80337     -91.6145 
-0.000218274      12.0492     -135.404 
-0.000325061      7.66640      136.055 
0.000113879      9.12243      85.9765 
-7.34044e-05      5.71183     -107.738 
-0.000377959      11.7086     -42.2986 
3.87423e-05      6.02349     -30.3088 
3.87866e-05      7.00479      121.691 
-0.000148652      3.62222      120.528 
-0.00111772      9.63972      42.5614 
-0.000395742      5.70097     -125.864 
-0.000174135      5.19855     -4.85224 
-3.83257e-05      9.00154     -84.5180 
-0.000143834      6.17577     -61.3579 
0.000354547      6.99417      121.550 
-0.000180993      11.6936     -42.3654 
-3.79246e-05      7.08880      125.935 
3.79273e-05      13.0060     -132.821 
0.000585520      10.4759      77.3176 
-0.000248863      8.97242      64.5193 
0.000176578      8.76482     -60.9201 
-0.000583518      12.4630      141.844 
-0.00139647      10.4601      15.0731 
0.000255437      10.4604     -66.3276 
0.000446106      9.04186     -121.618 
-6.86984e-05      9.99013      136.945 
-0.000101140      8.32224      1.23997 
6.90716e-05      2.96972      25.5355 
0.000262695      13.0193     -132.884 
-7.07599e-05      5.99658     -146.153 
3.63119e-05      9.92012      180.000 
0.000133914      8.33149     -17.1718 
-0.000136345      8.70653      106.689 
0.000228781      9.62138      15.3076 
-6.98683e-05      8.90112     -25.4158 
-0.000101910      7.07301      126.027 
0.000270189      10.0011      8.16111 
3.57558e-05      6.42389     -43.2345 
0.000652499      9.12387      85.8496 
-0.000184201      8.94283      124.615 
0.000474242      11.2852     -49.9603 
-0.000217421      3.63969      120.366 
0.000283797      9.49202     -16.5253 
3.48069e-05      8.19673     -112.374 
3.48663e-05      4.80228      1.67442 
-3.47449e-05      7.03129     -27.4401 
6.08145e-05      3.53557     -21.9211 
6.56420e-05      11.8079     -36.5997 
-0.000419860      7.27214      67.5234 
-0.000155597      7.41739     -78.9652 
0.000216409      10.6769      135.228 
-0.000364112      12.2917      135.989 
-0.000127726      9.74595      1.99880 
-0.000753504      13.1581     -48.1415 
0.000490407      9.60184      15.3396 
-9.67364e-05      2.56349      32.5690 
-3.36148e-05      8.54184      44.6227 
-0.000283653      11.1307     -45.6555 
-0.000116989      9.03574      74.3317 
3.35866e-05      9.93963      180.000 
-3.33761e-05      8.17154     -32.9123 
-0.000205734      11.0351      67.2920 
9.31604e-05      9.73994     -61.0140 
0.000153578      11.8087      36.1133 
3.28467e-05      9.29350      37.8304 
-0.000186707      12.7281      141.059 
-3.27301e-05      8.49213      56.2341 
0.000119347      10.0189     -5.04019 
-0.000951268      12.6911     -138.195 
0.000914628      7.99247     -3.15387 
-0.000833095      12.0348     -135.336 
-9.18339e-05      7.68396     -38.6607 
-0.000166196      10.1140      22.5600 
-0.000581182      13.4430      136.929 
-6.34296e-05      9.65276     -119.273 
0.000416863      5.12262     -78.5172 
0.000204779      11.3539     -28.0538 
-3.20611e-05      8.55946      26.8054 
-6.08379e-05      7.78556     -78.8915 
-6.25681e-05      8.83386     -7.41357 
-0.000529391      12.4755      141.771 
0.000143161      10.0800      179.885 
-6.13448e-05      9.64129      78.8755 
-0.000114159      8.48089      56.3479 
-0.000313234      12.5565     -38.4047 
-0.000581142      10.5736     -159.750 
0.000368801      11.6710     -54.4859 
-0.000271850      5.94500     -109.043 
3.10565e-05      9.27750      37.9071 
-3.10835e-05      8.87481     -25.3517 
-3.09574e-05      11.1761     -114.867 
-3.09698e-05      12.4479     -54.5470 
0.000723119      12.3764     -34.3318 
-0.000179771      5.67376      114.579 
3.05389e-05      4.78147      1.43884 
-0.000170321      9.66268     -119.378 
0.000115713      12.3329     -140.528 
-0.000543918      10.1327      22.5161 
0.000552012      12.8660     -49.4752 
0.000170336      8.94013      36.9997 
-5.87080e-05      13.6855      138.436 
0.000117049      10.2501      75.4225 
5.88306e-05      8.75499     -61.0360 
-0.000443788      9.02565      172.106 
-0.000244811      7.93101     -120.121 
-0.000188743      12.4593     -54.4740 
-8.66924e-05      8.04214      1.42755 
-0.000143766      12.6849      141.015 
-2.97263e-05      8.90576     -68.3895 
-0.000220102      11.1680     -114.776 
-8.63686e-05      8.68204      106.598 
2.94449e-05      9.58842      15.4871 
2.94812e-05      7.07226      45.9157 
0.000577253      12.4159      128.921 
5.62334e-05      5.90393     -27.4346 
-2.91065e-05      11.9938     -45.9455 
5.75651e-05      3.27319      144.951 
8.42471e-05      8.03745      138.937 
-2.89802e-05      9.75780     -45.0000 
-2.89882e-05      11.1182      25.9217 
-8.00643e-05      9.63740      78.9937 
-8.34361e-05      9.76552      1.87586 
0.000716401      13.5259      40.9216 
5.65222e-05      12.0826      128.008 
0.000352640      10.0182      6.18759 
-8.02664e-05      8.89832     -68.5108 
2.86063e-05      13.0331     -132.949 
5.45688e-05      7.58036      8.34427 
-5.64103e-05      12.1916     -54.6156 
0.000157430      10.5169      13.6396 
2.82618e-05      13.0341     -132.823 
0.000155622      6.98586     -63.2863 
-0.00132234      11.4488      26.7867 
0.000637668      13.5259      130.922 
-0.000109186      9.00558      172.088 
2.79716e-05      8.20178     -112.814 
-7.83328e-05      7.06111      125.894 
0.000282524      13.0479     -132.889 
-0.000184633      12.1476     -123.585 
-0.000132150      11.8120     -40.8113 
0.000131939      10.2305      75.3940 
7.95404e-05      6.43287      112.098 
-0.000258985      11.3720     -146.842 
-0.000182761      9.89414      175.245 
-0.000178940      7.01337      168.821 
-2.73839e-05      12.7130      141.004 
-0.000102404      10.9848      122.735 
-0.000197975      8.02264      1.43102 
-0.000341433      12.2033     -54.5381 
0.000248242      12.1104      128.027 
-0.000105110      8.66790     -52.9734 
-0.000211570      10.1609     -29.9979 
-2.70947e-05      7.65235      136.164 
2.70562e-05      11.6860     -30.7776 
7.91970e-05      7.38884      145.924 
0.000205519      9.99120      169.388 
-0.000156418      12.6692      140.957 
2.69374e-05      6.79492      58.5989 
-2.69399e-05      8.88351     -25.4698 
-5.28287e-05      7.69979     -38.5665 
2.68812e-05      6.63140     -104.495 
0.000225986      11.0981     -51.2912 
-2.67971e-05      10.1994     -110.068 
-0.000100878      11.6805     -42.2947 
-0.000416072      12.4281      126.428 
5.18459e-05      8.67256     -10.7664 
0.000289809      12.1540     -56.8839 
-0.000197010      10.7022     -159.430 
2.64194e-05      6.81222      58.6877 
0.000102098      11.1613      43.6189 
0.000245753      3.07675      27.0713 
-0.000151031      11.6692     -36.0062 
-2.60188e-05      10.1461     -40.2814 
-7.62256e-05      12.3057      136.052 
-0.000149821      7.29086      67.5843 
2.59922e-05      11.6686     -30.8285 
-0.000358971      12.5599     -38.2749 
0.000582367      11.0591      154.963 
5.07687e-05      6.05785     -30.1190 
-0.000217584      11.3994     -146.810 
-9.83966e-05      11.1595     -114.681 
7.33842e-05      11.3635     -28.1439 
-7.41908e-05      11.4805      119.423 
-9.82558e-05      10.6070     -122.760 
0.000143820      6.82238      58.5477 
0.000122785      9.92371     -70.9430 
0.000239778      9.71021     -92.5955 
4.80731e-05      10.2356      75.2842 
-2.53683e-05      8.67627      106.470 
-0.000283406      7.19149     -116.065 
-0.000365070      12.4124      126.482 
-7.33542e-05      12.1644     -123.532 
0.000282821      11.1754      43.5499 
-7.41644e-05      9.20252     -176.012 
-0.000281056      8.67237     -53.1569 
7.40046e-05      11.5725     -28.6025 
-0.000280665      10.5964     -122.672 
-4.94559e-05      12.6972      140.946 
-2.47775e-05      12.8568      134.182 
-0.000187859      9.68426     -73.8119 
0.000118660      9.13293     -141.220 
-0.000324540      7.92370     -120.322 
-4.84739e-05      10.1344     -146.185 
-0.000211027      12.3508      140.718 
9.42047e-05      10.0112     -92.7496 
0.000120341      6.70047    -0.513332 
-2.46695e-05      6.13192      86.4499 
0.000524021      10.4714      77.4258 
-4.87085e-05      7.53600      102.414 
-0.000414935      10.1273      99.7778 
-0.000206704      10.1438     -40.4427 
0.000458106      9.43698      93.4007 
-7.16504e-05      11.1386     -146.795 
-9.56602e-05      9.87395      175.235 
-2.43553e-05      9.03029      74.4555 
-2.43253e-05      8.75839     -131.297 
0.000217665      9.96422     -121.459 
-9.54489e-05      12.6540      140.901 
0.000139950      9.86945     -47.8752 
0.000433891      9.97128      169.367 
0.000503169      10.3832      11.8946 
2.42336e-05      10.0121     -92.8611 
0.000234105      11.5897     -28.5563 
-4.75029e-05      10.2624     -73.1206 
7.14393e-05      9.68744     -2.24626 
-4.73249e-05      9.63509     -119.332 
-9.96592e-05      9.48648      177.824 
-7.11460e-05      11.6812     -36.0866 
9.39486e-05      5.13864     -78.7754 
0.000207819      13.0628     -132.828 
6.99410e-05      10.3561      102.266 
2.38828e-05      11.6790     -30.9139 
-0.000924371      12.6815      140.889 
-0.000299516      12.9904     -50.0592 
-0.000207195      7.55579      102.381 
4.73116e-05      10.3792      146.952 
-0.000114948      9.94107     -118.213 
-2.38646e-05      2.14347     -86.7890 
-0.000138841      13.4564      136.869 
-2.37345e-05      8.96356      64.3488 
-4.66403e-05      11.0122      122.769 
-0.000250401      13.1445     -48.2073 
-7.03152e-05      10.0419      174.744 
2.36533e-05      11.9823      38.0182 
-2.36275e-05      8.93134      124.509 
8.14021e-05      3.09398     -163.094 
-0.000183004      8.60591     -119.366 
-2.35910e-05      9.18231     -176.003 
-0.000139122      11.8964     -37.4857 
0.000653217      9.70768     -2.24158 
9.18909e-05      8.65266     -10.7915 
-0.000540115      11.8539     -58.8055 
-0.000114339      10.2042     -167.436 
-0.000405233      12.8504      41.5296 
-0.000135006      10.5669     -159.850 
0.000404942      13.5392      40.9864 
-6.87831e-05      9.26833      30.3289 
-9.02626e-05      10.8645      113.546 
0.000203294      10.3962      147.013 
-9.12467e-05      11.1448     -45.5810 
9.14466e-05      11.9795      38.1520 
2.32447e-05      5.05146      8.19871 
9.08925e-05      11.3456     -28.1922 
-2.32496e-05      11.1275     -146.882 
-2.32263e-05      9.50673      177.829 
-6.82841e-05      11.6440     -129.844 
-0.000225295      11.3830     -146.756 
-0.000113128      11.5648     -37.6216 
-4.59329e-05      10.4335     -159.932 
2.30702e-05      9.62696      70.5877 
-4.59284e-05      5.54714      171.082 
2.31205e-05      9.24274      38.2348 
-2.30855e-05      10.6762     -159.494 
0.000202803      9.12530      85.7274 
4.60941e-05      9.99369     -92.9827 
-2.30721e-05      12.4757     -54.5280 
2.30263e-05      6.68021    -0.514889 
-0.000180727      10.0438      174.628 
-4.59157e-05      13.0750      133.016 
-0.000179462      12.9861      40.1905 
4.53580e-05      10.2185      150.576 
-0.000157787      11.1111     -146.827 
-0.000247125      2.73666     -173.703 
0.000157186      8.88658      177.808 
0.000176860      5.72420     -76.2589 
-2.28832e-05      11.6955     -42.2279 
2.29017e-05      7.40021      145.794 
-0.000157902      11.4565     -134.153 
-2.29459e-05      6.86124      54.1353 
-0.000146481      8.02315      1.57031 
4.50771e-05      6.99465     -63.1436 
4.55586e-05      9.73016     -98.6313 
-2.28190e-05      9.63355      79.1119 
-0.000425509      10.5919     -159.787 
-0.000403264      11.8809     -37.5430 
2.27707e-05      9.94636     -153.487 
-4.52492e-05      6.99469      117.222 
0.000291080      9.99602      6.08893 
0.000157399      11.5032      150.180 
-2.27396e-05      10.2064     -110.175 
-2.27334e-05      10.2568     -73.2249 
-0.000201949      13.1059     -51.3807 
-6.74071e-05      9.29909     -19.6047 
4.49573e-05      6.83297      58.4028 
0.000112091      12.1429     -56.9640 
-6.72698e-05      13.0718      38.8529 
2.26349e-05      9.98500     -56.8521 
0.000335613      9.71013     -98.6492 
-2.26215e-05      6.87313      53.9984 
-4.50032e-05      10.8173      23.7680 
-2.26130e-05      12.6760     -138.134 
-4.50328e-05      6.72347      108.918 
-0.000108355      8.68409     -53.0539 
-8.96328e-05      11.5279     -40.8481 
-2.25502e-05      2.69863     -83.1971 
-0.000335083      11.3741     -151.541 
-0.000156490      10.2316     -73.3008 
4.47894e-05      10.7504      148.230 
-4.50105e-05      10.4075     -159.999 
4.48690e-05      8.99271      93.0613 
-6.72253e-05      5.66444      177.776 
0.000558085      13.7212      136.301 
-0.000178739      12.6781     -138.261 
-6.71012e-05      10.2240     -167.461 
0.000223580      11.5978     -28.4205 
2.24461e-05      2.76822      150.099 
0.000154333      5.72905     -76.0620 
-0.000134021      2.70111     -82.7703 
4.48061e-05      3.01206      98.3945 
-0.000156241      12.3636      140.645 
2.23978e-05      10.0102     -92.6338 
-2.24080e-05      9.25150      30.3899 
0.000223385      11.1607      43.7659 
6.70963e-05      5.63610     -129.961 
-0.000223259      10.3892     -159.962 
-0.000133947      13.4416      136.810 
0.000375828      10.2116      75.3664 
0.000401771      14.3682     -44.8879 
-6.69615e-05      12.7864     -135.887 
-0.000156021      11.1481      28.0364 
-0.000368882      9.23695      31.4523 
-0.000200778      12.5632     -38.1451 
-0.000185534      7.02876      169.008 
-2.23302e-05      9.67863     -73.9271 
-0.000129919      7.21860     -116.139 
-2.23465e-05      6.98578      117.080 
-0.000133930      8.36016      179.727 
0.000133820      9.68997     -92.6010 
-8.92871e-05      13.7724     -47.4134 
-0.000111553      11.1304     -45.5080 
2.22997e-05      9.72222     -60.9561 
4.46075e-05      10.6435      156.759 
0.000133867      9.87025     -141.088 
-2.23052e-05      7.01271      117.146 
-0.000223159      12.6630     -138.200 
-2.22493e-05      5.55031      170.875 
6.68904e-05      9.08147      88.8637 
-0.000156124      12.2248     -133.276 
-0.000111311      11.4701     -134.223 
6.69855e-05      12.7785      128.072 
0.000102661      8.24863     -56.2695 
0.000105374      5.46701      68.3154 
-0.000111387      13.0035     -49.9908 
-8.91481e-05      12.4360     -136.628 
0.000156330      11.5201      150.229 
-2.22190e-05      9.26138      30.4940 
-6.69892e-05      10.6135     -122.613 
6.68468e-05      8.42328     -61.1814 
2.22514e-05      12.1224      128.099 
6.69149e-05      12.0312      146.390 
4.45366e-05      12.0049     -147.104 
6.67939e-05      13.0771     -132.770 
0.000156180      12.7511      128.057 
6.69140e-05      10.1149     -175.238 
2.22755e-05     0.849697      63.4576 
-4.46376e-05      12.8370      41.4619 
-2.22819e-05      9.92322     -118.268 
0.000111503      9.89071     -169.986 
2.23073e-05      10.3025      158.715 
-0.000156300      12.4245      126.557 
-0.000163288      7.00383      117.004 
0.000245552      11.6156     -28.3730 
-0.000124452      7.03787      125.632 
-6.69415e-05      11.4335      127.754 
2.22513e-05      10.0093     -92.5179 
8.94078e-05      12.8380     -49.4873 
-0.000156205      13.1186     -51.3115 
2.22851e-05      8.99165      92.9324 
2.22762e-05     0.858942      62.2485 
-0.000108019      7.55147      102.231 
8.92107e-05      10.3371     -12.2888 
-4.45777e-05      14.0873     -45.8050 
6.70907e-05     0.885686      61.6762 
2.22739e-05      2.99276      98.4491 
4.46014e-05      12.0219     -147.156 
-8.91004e-05      5.11313     -173.486 
8.90589e-05      3.45622      23.8993 
4.40580e-05      10.2167      75.2564 
-8.95136e-05      12.7719     -135.824 
-6.70468e-05      12.9769     -47.0597 
4.46563e-05      5.64914     -130.118 
2.22765e-05      9.98026     -5.17220 
4.47065e-05      9.67081      8.68465 
6.69765e-05      10.0162      6.07663 
-4.46478e-05      11.4846     -134.153 
2.23015e-05      9.56250     -93.9597 
-2.23169e-05      10.0262      174.507 
-2.22435e-05      10.1039      99.6841 
-2.23502e-05      14.1175      46.2620 
-2.23291e-05      11.3919     -151.590 
-2.23750e-05      9.24393      30.5577 
2.23347e-05      10.5625      158.683 
-4.46020e-05      10.8968     -110.296 
6.71288e-05      13.5525      41.0510 
2.23225e-05      12.0329     -147.075 
2.23817e-05      3.74155      141.294 
2.23617e-05      7.00383     -62.9957 
-2.23355e-05      11.5852     -150.071 
-2.24125e-05      10.2258     -73.4095 
2.23045e-05      7.54102      8.38812 
-2.23715e-05      12.6664      140.833 
2.23312e-05      9.45532      93.2757 
-4.11515e-05      10.6026     -122.520 
2.23481e-05      11.5277      150.366 
2.23825e-05      10.3948     -135.392 
-0.000313129      13.4297      137.113 
-0.000133291      10.1582      22.5756 
-2.80907e-05      9.97649     -162.983 
4.57107e-05      8.61359     -10.8410 
-0.000123036      9.97079     -163.090 
5.29879e-05      12.8343      46.9570 
0.000141620      12.7296     -129.515 
-0.000101637      7.54736      102.086 
0.000210840      8.62971     -10.6836 
0.000119892      10.2278      143.109 
-0.000137239      8.33990      179.727 
2.61474e-05      9.70691     -60.6369 
-0.000176389      7.93357     -120.443 
0.000116626      8.95929     -58.5079 
4.87474e-05      9.98395      10.3877 
4.83255e-05      9.71686     -60.5328 
0.000130611      13.7936      46.5871 
4.78485e-05      12.7447      47.9258 
-2.38267e-05      5.68475      177.579 
8.91897e-05      9.28520      119.270 
-0.000168385      9.35592      67.7651 
0.000162863      9.95366     -121.359 
0.000124811      8.55010      47.4648 
0.000125683      10.2582     -157.534 
4.46360e-05      9.99133     -57.0093 
-0.000123575      9.42103      34.9711 
4.42518e-05      8.02912     -92.7105 
-4.49207e-05      7.04865      169.039 
-0.000162366      13.4435      137.049 
6.35021e-05      12.7312      47.9935 
-8.29382e-05      10.2680     -94.2455 
0.000102806      10.5234      61.6331 
0.000125103      6.02349      149.691 
8.00526e-05      8.53642      47.5650 
2.23307e-05      10.1133     -175.348 
-0.000121640      11.0430      67.1951 
-6.48190e-05      14.1426     -45.4579 
-4.37781e-05      10.1508     -29.8988 
4.23487e-05      9.85450     -141.014 
-0.000138575      8.59599     -119.248 
8.35661e-05      10.0931     -175.339 
-0.000122156      7.18959     -97.9973 
0.000101765      10.4737     -47.3198 
0.000140572      11.8616      120.501 
-0.000198909      11.9280      142.631 
-2.17135e-05      10.1580     -128.766 
-0.000101196      1.72794      16.1368 
0.000100872      13.5495      45.7180 
8.04367e-05      13.0332      130.704 
-2.12806e-05      13.6428      41.6131 
6.14729e-05      4.66630     -130.650 
8.05728e-05      3.09480      26.9005 
2.10710e-05      7.94155     -94.1886 
-9.96571e-05      10.1422     -128.837 
-6.10113e-05      11.3093      131.274 
-2.09378e-05      7.22924      55.2526 
6.01595e-05      5.14204     -23.3775 
4.08091e-05      6.62156     -104.162 
4.07050e-05      8.92020      37.2536 
2.06724e-05      10.6340      159.180 
9.69694e-05      10.2116      143.041 
-0.000118255      14.1284     -45.5164 
5.98795e-05      7.77801      106.431 
-5.92842e-05      6.23228     -142.431 
0.000193212      10.1400      180.000 
0.000117345      12.7527     -137.351 
2.03713e-05      10.2846     -157.473 
7.71172e-05      9.73466      43.1665 
0.000152966      7.39447      145.581 
5.83705e-05      12.9344      140.081 
9.73139e-05      9.49584      81.0349 
5.81285e-05      9.00403     -121.463 
3.95215e-05      10.4195      138.971 
-0.000133408      12.4881      141.698 
5.88064e-05      9.75019     -98.6134 
5.76522e-05      10.4043      138.898 
7.72211e-05      7.94305     -94.3344 
3.88724e-05      5.44819      68.2367 
-1.96146e-05      9.95066     -118.316 
5.77933e-05      10.4398     -103.289 
3.86899e-05      13.7788      46.5292 
-1.95743e-05      11.3159     -25.6594 
-3.80010e-05      6.30730      11.5225 
-3.82862e-05      7.97989      14.6635 
-3.82404e-05      9.58020     -157.022 
1.91753e-05      11.8927     -48.8886 
-1.91537e-05      9.96850     -118.261 
3.71955e-05      5.94111     -25.0956 
-3.78372e-05      3.26176      156.891 
5.64514e-05      9.76647     -98.4787 
3.77660e-05      10.6135     -70.7465 
3.76360e-05      4.65362     -130.468 
-3.79488e-05      9.06605      74.1243 
-1.88619e-05      11.4419      127.973 
-5.64996e-05      12.8572      134.054 
-3.74483e-05      12.5160      53.1844 
-1.88147e-05      10.8238     -24.1004 
-1.87903e-05      12.6836     -40.3954 
1.87208e-05      9.48573      114.674 
-1.86909e-05      10.0348     -9.40809 
9.34175e-05      14.2985      45.6251 
-7.50961e-05      10.8137     -24.2422 
-3.83441e-05      7.82167      73.5140 
-7.48998e-05      9.34827      67.8800 
-5.63172e-05      7.02141      125.728 
3.76375e-05      3.06895     -163.333 
-5.59470e-05      10.9664      117.124 
1.91735e-05      8.74386     -61.4445 
-3.74957e-05      7.92183      14.7734 
-1.87970e-05      6.21683     -142.321 
3.69320e-05      9.45131     -7.05054 
-3.68847e-05      10.5746     -122.487 
-3.68013e-05      12.4518      37.0370 
-1.85530e-05      7.92028      155.375 
-1.85690e-05      10.9277     -143.109 
-3.64839e-05      9.26416     -44.2124 
1.84072e-05      9.51144     -16.4906 
-1.84077e-05      9.06053      74.2475 
-1.83654e-05      7.00961      168.978 
1.82625e-05      11.3413     -63.8418 
1.82774e-05      11.8908     -48.7508 
1.82725e-05      9.28329     -132.904 
-1.82489e-05      9.64503     -119.437 
-1.81381e-05      8.11547      67.5444 
-1.81144e-05      10.0315     -9.29392 
-1.81260e-05      7.94142      14.7361 
-1.81344e-05      12.6911     -48.1948 
-1.81052e-05      13.0617      132.954 
-1.81269e-05      8.32039      179.726 
-1.80789e-05      8.72980     -131.285 
! Tentative model.
! Flux (Jy) Radius (mas)  Theta (deg)  Major FWHM (mas)  Axial ratio   Phi (deg) T \
! Freq (Hz)     SpecIndex
1.87770e-05      8.24839     -56.2714 
