! Center RA: 12 21 31.69052,  Dec: +28 13 58.50011 (2000.0)
! Established model.
! Flux (Jy) Radius (mas)  Theta (deg)  Major FWHM (mas)  Axial ratio   Phi (deg) T \
! Freq (Hz)     SpecIndex
 0.0996950      0.00000      0.00000 
 0.0184871    0.0300155     -90.0000 
 0.0114830     0.120062      90.0000 
0.00287247     0.240124      90.0000 
0.00588003     0.241993      97.1250 
0.00267966    0.0949173      108.435 
0.00628766     0.271802      96.3402 
0.00268347    0.0671167      116.565 
0.000240587    0.0424483      135.000 
0.00603094     0.123757      75.9638 
0.00280420    0.0424483     -45.0000 
0.00105987    0.0848966      135.000 
0.00510313    0.0848966     -45.0000 
0.000963627     0.276729      102.529 
0.000493139     0.108222      146.310 
0.000908349     0.371271      104.036 
0.00128386     0.400456      102.995 
0.000702889     0.247514      104.036 
0.000306479     0.319069      48.8141 
0.000366647     0.134233      153.435 
0.000398111     0.339586      45.0000 
0.00103417     0.408255      107.103 
0.000328484     0.301652      84.2894 
5.28483e-05     0.300155      90.0000 
0.000304876     0.153050      101.310 
0.000760684     0.330170      90.0000 
4.94871e-05     0.218516      105.945 
9.68243e-05     0.150077      90.0000 
0.000541997     0.256452      110.556 
0.000164023     0.365154      99.4623 
3.81438e-05     0.313371      73.3008 
0.000104880     0.323277      68.1986 
0.000348913     0.577359      98.9726 
0.000193742     0.612198      101.310 
0.000464458     0.324667      56.3099 
0.000900910     0.904209      95.7153 
0.000362915     0.788842      98.7544 
6.11346e-05     0.228591      113.199 
8.84195e-05     0.607026      98.5308 
0.000372582     0.268467      116.565 
5.83509e-05     0.770966      103.509 
0.000161643     0.778525      105.657 
7.79358e-05     0.134233      63.4349 
0.000217495     0.161638      158.199 
0.000443690      1.12916      72.9981 
0.000795431      1.32032      68.6702 
0.000165342     0.787156      107.761 
0.000372961     0.150077      36.8699 
0.000342503     0.573445      96.0090 
0.000842470      3.84979      111.965 
0.000918848     0.342229      52.1250 
0.000648015     0.189835      161.565 
0.000176747     0.796825      109.817 
0.000204504     0.283165      122.005 
0.000104899     0.671167      116.565 
0.000469208      3.53177      106.275 
8.46978e-05     0.793965      100.896 
5.37058e-05      1.13077      68.1845 
1.81924e-05     0.711563      117.646 
0.000279582     0.108222     -33.6901 
0.000885179      1.85726      58.8854 
0.000383725      1.13550      77.7915 
0.000251969      3.17968      116.323 
0.000184832      3.59881      118.917 
0.000183431      1.14227      66.7866 
0.000111907      3.87811      104.786 
0.000408340      14.2972      108.093 
6.56104e-05     0.807495      111.821 
1.69462e-05      1.14223      76.3198 
0.000231139     0.175019      30.9638 
0.000194299      10.8298      111.447 
0.000137525      3.13950      116.075 
0.000446307      11.1864      111.886 
0.000591486      14.4740      112.418 
3.11300e-05      3.58728      119.568 
0.000533292      4.62056      125.755 
4.66525e-05      3.28814      121.953 
0.000131318     0.446212      109.654 
0.000361239     0.825126      109.111 
0.000472253      9.86611      111.961 
0.000148837      3.30412      122.394 
0.000332928      5.34319      130.221 
0.000107646      3.84910      104.900 
4.16051e-05     0.685116      118.811 
9.99764e-05      1.30386      66.9616 
0.000136627      2.81419      121.490 
0.000178075      2.14743      105.401 
0.000372684      3.79991      137.241 
0.000139917     0.300155      126.870 
6.58503e-05      4.17250      116.017 
3.99682e-05      1.19430      115.293 
0.000108918     0.189835      18.4349 
3.89979e-05      6.73118      110.613 
6.08170e-05     0.818521      98.4347 
8.34743e-05     0.201350      153.435 
0.000145103      10.8408      111.594 
0.000169230      9.83757      115.079 
5.01946e-05      3.85693      105.331 
0.000250062      3.91864      109.684 
9.38988e-05      3.58439      118.497 
0.000257702      1.20743      116.581 
9.58107e-05      10.7678      108.184 
8.28209e-05      6.83359      106.845 
0.000166698      6.74180      110.852 
9.63553e-05      1.07410      54.0668 
0.000126357      14.2879      107.978 
9.35168e-05      8.60541      122.472 
9.63957e-05      3.82197      112.134 
0.000144540      4.18575      116.386 
0.000145230      2.17638      105.191 
0.000160478      6.98839      113.262 
8.21558e-05      3.32951      122.118 
3.32399e-05      6.81366      107.160 
0.000353233      9.63041      109.282 
0.000307238      7.30354      111.189 
3.34855e-05      8.57651      115.043 
0.000271541      8.25126      117.029 
0.000229333      10.7584      108.032 
6.05216e-05      7.26473      111.054 
0.000112674      2.31283      99.7129 
0.000396643      11.2789      125.255 
6.04437e-05     0.571083      93.0128 
0.000100714      6.47163      107.260 
3.17061e-05      9.60208      109.341 
0.000176951      8.63075      122.365 
0.000328615      13.0676      116.447 
0.000163099     0.218516      15.9454 
0.000216694      5.41235      132.977 
0.000234493      3.97139      137.757 
0.000179882      8.56385      114.861 
7.95560e-05      3.57016      118.073 
0.000199522      6.46279      107.006 
4.01760e-05      14.2501      107.901 
0.000140946      6.80487      106.918 
1.03300e-05      1.15443      65.4173 
0.000268029      9.06135      123.797 
9.58446e-05      4.68010      126.137 
2.01681e-05      9.85033      115.238 
2.03402e-05      12.6597      114.499 
5.78816e-05      2.53183      130.673 
0.000165381      12.1436      101.253 
3.81970e-05     0.474586      145.305 
7.23585e-05      12.1495      101.392 
0.000120858      1.12720      64.7826 
0.000141774     0.835434      111.056 
0.000135757      3.16648      115.836 
0.000145529      12.6722      114.623 
5.65786e-05      12.3229      102.513 
6.99900e-05      11.7994      124.538 
0.000110394      1.71834      114.786 
7.40881e-05      12.8093      118.847 
0.000214522      11.8164      124.658 
0.000100444      4.63816      126.056 
0.000145530      6.75254      111.090 
0.000137469      7.29195      114.036 
3.43506e-05      6.68255      115.529 
0.000152621      12.4321      101.553 
2.78011e-05      3.81064      116.161 
2.77773e-05      11.1752      111.744 
0.000102303      7.00030      113.487 
0.000134637      12.6016      117.969 
7.69883e-05      9.85492      111.799 
8.56354e-05      14.2593      108.015 
9.41186e-05      8.79651      122.607 
2.73208e-05      8.26494      117.214 
1.81163e-05      9.86317      115.395 
9.98189e-05      2.15559      106.170 
0.000124685      12.3913      110.848 
7.47406e-05      5.61028      131.530 
7.41749e-05      2.55149      131.184 
0.000148252      4.91490      128.061 
1.71631e-05      3.21992      116.565 
0.000131486      7.41860      108.140 
8.99323e-05      3.78373      116.362 
2.61615e-05      11.1641      111.600 
0.000115876      6.28050      117.912 
8.19691e-05      12.3294      102.649 
9.08786e-05      10.7492      107.880 
8.91271e-05      1.70598      113.870 
8.91436e-05      12.8238      118.965 
2.46128e-05     0.450232      143.130 
6.37397e-05     0.201350      26.5651 
1.68200e-05      11.1531      111.457 
5.55361e-05      14.2121      108.971 
3.98288e-05      9.91612      115.634 
3.20770e-05      3.34556      122.553 
1.63676e-05      4.69786      126.432 
3.21469e-05      11.1422      111.313 
3.93575e-05      12.6847      114.746 
2.34861e-05     0.930214      91.8491 
2.33870e-05      3.20661      116.085 
3.10928e-05      11.4990      123.402 
1.55439e-05      6.29461      118.154 
1.54372e-05      3.77792      136.932 
3.08660e-05      12.1136      110.589 
1.54028e-05      6.68923      113.805 
1.55117e-05      8.61472      122.196 
3.83362e-05      10.7129      107.269 
3.06957e-05      8.84637      111.695 
2.29765e-05      11.1593      111.114 
1.52954e-05      3.43220      126.474 
2.28430e-05      3.80511      107.431 
1.52265e-05      11.2505      113.078 
1.51440e-05      7.26454      114.132 
7.56530e-06      13.1213      116.624 
7.51315e-06      9.72995      110.392 
0.000632382      16.2708      50.0851 
-0.000477597      7.00015      171.872 
-0.000358774      10.6836      33.7794 
0.000465703      15.5593      146.402 
-0.000427615      7.17285     -17.5289 
0.000231112      15.2027      21.6544 
0.000162487      16.0064     -107.451 
-0.000407538      9.24708      6.89318 
0.000367494      15.1660      118.085 
-0.000333659      14.1450      102.121 
0.000370158      2.68244     -143.646 
4.15844e-05      15.5427      146.494 
0.000192633      17.1166     -47.6989 
-0.000256297      18.3078     -138.920 
0.000118529      4.95264      160.906 
0.000146613      13.7732     -122.548 
0.000251811      7.24021      23.6984 
0.000287716      8.20280     -5.87540 
-0.000115530      8.49327      88.3799 
0.000218473      14.9787      170.199 
-0.000283646      10.5591      63.5078 
0.000113984      15.7025      46.3922 
0.000218894      15.9940      29.0664 
-0.000394874      14.4932     -40.3844 
-0.000319774      15.4826     -130.914 
0.000149551      10.5684      55.4072 
-0.000177226      13.8767     -110.238 
-0.000381666      14.6953      52.3811 
0.000111650      15.2544      49.3868 
0.000138734      14.2719     -151.226 
0.000106027      13.8036     -1.24597 
0.000244541      17.1388     -47.7665 
0.000178475      15.2884      140.814 
0.000208125      8.11973      94.0275 
-0.000106888      8.46417      88.1711 
-0.000139769      10.9563     -127.433 
-0.000342973      12.8167     -91.8789 
0.000204729      4.98101      161.019 
0.000136453      15.9784     -107.483 
0.000102784      11.9654     -125.922 
0.000139307      14.2456     -151.168 
-0.000219039      15.0847     -134.113 
-0.000201835      12.3551     -75.6599 
0.000168728      12.9102     -98.1499 
0.000102323      17.6625     -42.7980 
-0.000135554      7.52529      142.125 
-0.000167540      14.8173      97.2121 
0.000168208      10.5721     -166.044 
0.000101937      10.5456      93.1000 
0.000102824      13.3846     -159.533 
0.000135204      15.2740      49.3013 
-0.000100134      12.2330      51.4703 
-0.000134492      20.4283     -44.8214 
0.000133702      11.8423     -8.89052 
0.000101389      10.5931      55.4994 
6.66746e-05      14.3579     -35.2167 
-0.000254377      15.7190      148.343 
3.40259e-05      7.51804      171.742 
-6.73811e-05      14.7129     -76.5577 
9.82437e-05      14.7021      45.7444 
9.93929e-05      11.0156      162.403 
3.37652e-05      14.4380      77.0313 
-9.75832e-05      11.6561      166.000 
-9.62939e-05      11.8938      67.7683 
0.000476793      15.3057      79.7258 
-6.46188e-05      11.3800     -92.4187 
3.28128e-05      15.6679     -31.7718 
3.28455e-05      15.7233      46.3130 
-6.47746e-05      14.4704     -40.4614 
6.39761e-05      13.0319      22.6107 
6.43756e-05      12.5804      44.3233 
-6.40583e-05      11.0257      119.145 
-3.26536e-05      14.6122      17.3193 
0.000118820      6.90795     -77.7135 
-6.38585e-05      8.41183     -166.804 
-6.41937e-05      14.4185     -148.096 
-6.37896e-05      14.7200     -76.4441 
-3.23897e-05      15.0639     -134.031 
-3.22912e-05      14.1667      19.5483 
-6.38329e-05      6.70891     -76.0259 
6.34557e-05      9.89575     -140.906 
3.22479e-05      6.71148     -175.383 
-6.36170e-05      7.32845      5.87113 
6.32308e-05      16.4752     -61.1469 
3.22018e-05      15.2411     -16.9370 
-6.32438e-05      13.4124     -65.5571 
3.21164e-05      15.3539      140.869 
-3.19514e-05      17.0741      54.4386 
6.31528e-05      14.1705     -120.256 
3.19221e-05      13.3565     -159.488 
6.29854e-05      15.4513      33.9988 
3.16621e-05      6.66177      113.909 
-3.15875e-05      13.5442      114.748 
5.39452e-05      20.3907      43.7475 
3.15077e-05      16.4523     -53.5278 
-3.14247e-05      12.9738      116.802 
3.13580e-05      15.8187      29.9205 
0.000134089      11.0066      162.552 
3.12792e-05      18.9606      53.4938 
-3.11759e-05      17.5033      49.1008 
-3.10318e-05      9.54892     -2.52221 
3.10522e-05      8.21357      55.2631 
-0.000320252      3.13204     -159.833 
-8.19164e-05      3.11445     -159.124 
-0.000869873      15.9110      147.239 
-0.000271687      3.84667     -128.028 
-0.000294144      11.7034      164.538 
0.000104780      13.1279     -28.3815 
-0.000195186      12.3480      166.369 
7.02013e-05      13.0608     -28.3908 
-0.000158529      11.0492      61.2784 
0.000104170      7.43945      17.1172 
0.000242468      8.98638     -86.5532 
-7.04122e-05      3.67732      174.379 
-0.000134119      6.30683     -22.6597 
0.000407728      16.4765     -53.5899 
6.82926e-05      7.26750     -87.3961 
-0.000157624      15.1886     -71.8148 
0.000218367      18.8073     -42.9305 
-6.66229e-05      2.95222     -154.738 
-6.63148e-05      10.0218     -23.6476 
-0.000358086      17.6353      141.494 
-0.000123282      9.39033     -101.239 
-0.000120797      5.63804     -65.4816 
0.000208649      12.6458     -51.7421 
-6.49604e-05      16.5564      28.9325 
9.66283e-05      14.5889     -2.00439 
0.000177191      14.0097      25.3586 
-0.000117232      5.85494      98.5424 
6.32796e-05      7.76133      19.4142 
-0.000277173      16.9866     -25.7512 
-0.000179489      15.9187      22.8447 
0.000199278      6.52805     -175.781 
0.000168753      9.20828      80.8140 
-0.000247075      15.0723      156.292 
0.000169365      11.6518     -133.228 
-0.000174085      10.3503     -158.045 
0.000204154      14.5812      71.8998 
-0.000135629      14.5803      96.3796 
-0.000186979      13.7942      115.507 
0.000135220      12.5918     -60.1348 
8.70587e-05      7.91624      21.8014 
0.000113573      18.7030     -142.561 
0.000115038      14.5589     -177.991 
6.08145e-05      13.9333     -97.9215 
0.000190103      7.29890     -87.1714 
0.000159861      10.5876     -71.1528 
-5.88081e-05      15.9362      147.298 
-8.69695e-05      2.96515     -154.213 
0.000358416      13.3785     -113.805 
-0.000133910      15.8182      37.9131 
-0.000123954      9.38061      29.9285 
-0.000196429      12.7624      36.4933 
-0.000175807      15.7386     -149.281 
8.27297e-05      13.3292     -28.3541 
-0.000150447      6.27914     -22.7652 
-5.74529e-05      14.0446     -67.6540 
-0.000231793      9.99427     -23.7166 
-8.42660e-05      18.1997      37.7005 
-5.61921e-05      5.96637      166.034 
5.44231e-05      2.41831     -52.5647 
0.000184584      10.1666     -15.2251 
2.95554e-05      12.0672     -161.296 
-0.000128909      9.84476      79.8190 
0.000210317      13.8149      138.521 
0.000109858      15.0646     -178.630 
2.94348e-05      18.9784      53.4210 
-0.000124730      15.0449      156.246 
0.000360085      14.5589     -2.00852 
-0.000103204      15.4531     -50.5941 
-5.65371e-05      15.9525      147.207 
-9.69040e-05      12.3118      166.472 
0.000128030      15.8323     -75.9644 
0.000153870      13.9120     -98.1834 
0.000274091      8.83702      168.842 
-5.48216e-05      14.8359     -76.0748 
8.27372e-05      18.1522     -52.1836 
-5.49147e-05      9.90371     -117.808 
0.000120739      13.7090      57.8749 
9.93009e-05      13.6653      21.7798 
-0.000126087      16.5826      28.8824 
-0.000338824      14.8745     -158.092 
-0.000205504      10.3904     -139.922 
-5.40105e-05      10.3560      36.6391 
0.000129556      14.0123     -144.235 
-2.80991e-05      11.0755      61.3530 
-8.03512e-05      15.8634     -157.071 
0.000104535      13.1314     -30.0198 
-5.42573e-05      12.9143      54.1682 
0.000120071      18.9841      53.5464 
-7.77089e-05      15.2561      25.7572 
-2.71788e-05      12.8467     -91.8745 
0.000144360      16.4897     -61.0556 
5.04438e-05      17.5353     -132.782 
0.000101631      12.8144     -51.6530 
-2.69793e-05      10.2836     -18.5420 
2.68703e-05      9.12771      74.3665 
-0.000237398      9.59650     -79.0055 
-0.000103608      19.6225      44.6917 
0.000396623      13.1589     -46.8463 
0.000346141      18.7853     -42.9928 
5.10930e-05      17.4619     -54.0155 
8.92392e-05      10.2958      160.243 
-0.000183576      12.8478     -92.0083 
9.41863e-05      11.3649      73.9081 
2.61318e-05      13.5357     -38.5199 
7.42653e-05      14.7885      39.5688 
9.22595e-05      14.2335      38.7551 
-7.17574e-05      14.0332     -67.7673 
-0.000566962      20.5556     -47.6039 
-7.08600e-05      14.5454     -55.5901 
-0.000212949      19.6228      44.5677 
-7.15580e-05      3.58641     -70.9623 
-7.29861e-05      17.9729     -50.0116 
-0.000678770      15.9580      22.9021 
-5.84421e-05      15.5756      31.8524 
0.000267716      16.4226      148.749 
-9.19708e-05      10.2932     -18.7004 
7.03658e-05      16.4542      28.0610 
2.53963e-05      13.3252      133.725 
-4.77927e-05      12.9076      53.9822 
0.000525781      18.1470     -52.0506 
0.000156902      14.6191      71.8245 
-0.000439922      21.4477      134.378 
-4.47760e-05      15.6110     -169.705 
6.97463e-05      12.4142      9.60011 
-0.000350210      15.8358     -157.029 
0.000117098      10.3319     -14.1160 
2.49491e-05      7.62620      37.0052 
-0.000106581      11.7148      165.465 
-0.000169402      14.5835      17.3544 
-6.94905e-05      10.2881     -20.1281 
-2.48157e-05      18.1760      37.7584 
-0.000117801      10.7739      120.634 
4.73377e-05      15.4005      141.010 
0.000154269      15.1971     -43.0812 
-6.74898e-05      12.5472     -29.5086 
4.81704e-05      18.6397      145.490 
-6.58431e-05      5.99550      166.103 
0.000139665      12.7709     -134.619 
0.000130825      13.0157      22.7835 
-4.68412e-05      12.8040     -150.370 
-0.000206863      15.4375     -130.033 
-6.84205e-05      9.32776     -55.7500 
-2.42190e-05      17.5528      35.0482 
-2.40700e-05      5.61960      86.6317 
-0.000406532      18.0556      31.8941 
4.55710e-05      14.5290     -177.987 
-4.49537e-05      2.99221     -154.463 
-2.39241e-05      10.6661     -63.7937 
-2.39406e-05      17.2551      48.3830 
-4.41754e-05      12.8900      54.0901 
2.38999e-05      12.8241      15.4683 
4.42352e-05      13.2267      3.63980 
7.97252e-05      6.57849      43.5210 
0.000160847      8.45243      161.372 
0.000283590      14.4969     -71.0398 
-6.72287e-05      13.4546     -80.2451 
8.53923e-05      18.7915      137.523 
0.000196401      13.1724     -30.0675 
-0.000262962      2.07610      37.3628 
2.36432e-05      15.8189     -75.2788 
2.35902e-05      15.0639     -178.744 
-2.35933e-05      17.5717      48.2527 
-9.03063e-05      11.8745      14.0362 
0.000142829      16.2132      50.3292 
-6.37311e-05      10.1399      134.760 
-2.33993e-05      13.7426      96.6442 
-0.000103133      14.5508     -37.4609 
-2.33255e-05      9.80171      124.274 
0.000623706      18.6227      145.567 
-0.000694880      17.3091     -152.545 
-6.60214e-05      5.35399      85.8206 
-0.000127292      17.2311     -129.843 
-0.000241128      18.3604      39.8302 
0.000168946      16.5185     -53.5679 
-6.61954e-05      15.1137      137.090 
4.39695e-05      17.4377     -53.9576 
-4.23709e-05      15.5399      53.2391 
-0.000186612      7.15262     -46.8662 
-9.81666e-05      19.6902     -139.759 
0.000207377      20.1144      43.7908 
6.19575e-05      18.9025      48.9258 
2.27856e-05      17.5774     -145.008 
-2.27154e-05      7.35157      141.960 
-0.000246996      17.2775      48.4491 
0.000101429      18.5291     -142.500 
-0.000171107      10.7062     -63.7205 
-0.000299823      19.3460     -50.9792 
0.000101404      14.2438     -150.195 
8.37141e-05      15.8113     -75.3840 
6.47166e-05      12.8611      15.5615 
9.66817e-05      7.10657     -130.551 
-2.23969e-05      15.0385     -101.041 
0.000177293      13.9267     -14.2167 
-2.23443e-05      8.30909     -166.212 
4.34063e-05      18.9223      48.8573 
-9.19641e-05      5.64956      86.6496 
-0.000158405      16.9596     -25.7952 
-4.24809e-05      19.0417     -129.182 
-0.000170083      18.1576      37.6835 
0.000114243      18.7738      135.065 
-2.18641e-05      13.7391      96.5199 
-4.20394e-05      15.9533      73.1658 
-6.21334e-05      14.4440     -148.159 
4.10679e-05      14.3865      124.119 
-2.16710e-05      13.0396     -103.301 
-5.96306e-05      4.24360      56.5404 
-6.02018e-05      17.5741      48.3908 
-0.000115828      11.9065      145.990 
-0.000226925      7.40758      125.105 
-9.80494e-05      16.5592      145.705 
-2.15335e-05      10.3320      36.7384 
2.14793e-05      14.0367     -144.306 
-0.000207550      16.6988     -43.7619 
0.000375914      15.5150      171.887 
-2.14401e-05      15.5914      31.9460 
-4.18109e-05      16.4200     -118.720 
-0.000115552      11.8454      14.0715 
0.000339266      9.07439     -155.385 
3.97825e-05      7.64431      37.1849 
-0.000180784      10.4031      58.9243 
-9.37620e-05      17.9536     -50.0850 
2.12444e-05      18.7526      135.000 
2.12345e-05      8.98463     -86.7443 
9.21480e-05      15.0946     -178.633 
9.48837e-05      15.2619     -86.9589 
-9.77941e-05      17.5426      48.9526 
-2.11107e-05      14.0962      84.8721 
9.61010e-05      11.6500     -133.434 
-0.000183606      13.8828     -51.6700 
-0.000152610      19.7131     -139.816 
2.09237e-05      7.26770      23.6033 
0.000148970      16.8313     -131.532 
0.000199577      14.0654      7.35326 
-0.000138772      16.1437     -27.8038 
6.59031e-05      10.6257     -71.0520 
-0.000159675      14.8883     -54.1004 
3.96677e-05      12.6068     -60.0165 
-0.000258396      12.7702     -3.23380 
-3.80966e-05      13.4673      96.5235 
-3.90790e-05      15.8656      106.139 
5.60699e-05      14.7654      39.6430 
0.000109671      13.2753     -98.1860 
0.000228107      16.4948      28.1039 
-0.000151329      11.9707      172.946 
-0.000113563      11.6498      18.1572 
-0.000312266      20.1336      41.1936 
0.000142341      13.0970     -56.9646 
-0.000282609      16.3450     -52.4572 
-0.000141218      12.7358      27.9541 
-2.02507e-05      5.32406      85.7970 
7.56690e-05      18.0822     -145.546 
0.000157955      12.8531      15.4326 
9.10594e-05      13.9105      137.709 
0.000317589      20.2101     -40.6666 
-0.000106355      11.0549      46.2101 
0.000347853      17.9161      51.5950 
0.000449316      17.3998      36.8709 
-8.97802e-05      19.3882     -50.9662 
3.91183e-05      7.10858     -76.0796 
3.92221e-05      8.47940      34.4790 
0.000115722      6.94715     -96.6928 
-0.000102013      20.1562      41.1374 
0.000141760      15.3182      34.0637 
-8.22710e-05      16.1842     -27.8482 
1.97236e-05      13.2313     -21.9710 
7.06642e-05      18.9663      53.6193 
0.000469874      14.8273     -175.940 
0.000261221      16.5006     -53.6517 
0.000138792      15.9124     -151.018 
-3.83257e-05      18.8410     -53.6787 
-1.95499e-05      15.0917      137.013 
3.83480e-05      6.94333     -125.681 
-0.00106180      21.4687      134.435 
8.46243e-05      7.28330      23.2924 
-0.000215490      19.0810      130.728 
-0.000132333      15.1063     -134.034 
-1.93659e-05      13.7813      115.394 
-3.71289e-05      17.2604      47.3238 
0.000130468      12.0492      150.627 
-0.000176021      17.6540      141.418 
5.55368e-05      12.7386      16.5583 
-8.37112e-05      11.7871      14.1424 
-0.000160097      17.0782      125.058 
1.91224e-05      13.5157     -41.5812 
-0.000109116      15.9620      73.0626 
0.000122975      18.4431     -133.219 
3.60486e-05      15.0022     -152.360 
8.84648e-05      18.4870     -142.517 
0.000147232      10.6355     -70.8990 
-1.90163e-05      14.0989      84.7506 
-1.89335e-05      13.8642     -51.7674 
0.000241284      13.0434      22.7324 
-0.000294867      14.9537      4.37158 
-0.000182371      16.4056     -118.628 
-0.000138891      15.7446      148.401 
-9.27347e-05      5.35189      86.1410 
-0.000271592      14.4598     -148.058 
3.66964e-05      15.2102      98.0514 
-1.86873e-05      10.2599     -20.1857 
-1.86124e-05      11.7580      14.1781 
-6.95351e-05      15.1389      92.8383 
-6.69618e-05      17.4377     -135.417 
0.000114448      8.80804     -82.3676 
0.000256609      16.8250      126.297 
5.11934e-05      7.13059     -76.3718 
-7.47479e-05      13.8872     -51.8421 
-0.000293372      11.8163      14.1068 
-4.87142e-05      14.8307      106.088 
-3.58501e-05      13.0327     -103.173 
1.83318e-05      2.19061     -76.5302 
5.21064e-05      15.7899     -75.2512 
3.25704e-05      14.5579     -178.110 
-0.000160906      17.1594      26.7006 
5.15790e-05      13.8773      14.9087 
9.55140e-05      10.8915      74.0112 
-0.000265052      19.3773     -43.1813 
0.000118393      6.91897     -125.826 
8.21199e-05      6.41547      82.4793 
-1.79588e-05      13.5715      114.695 
-0.000278039      18.1831      136.137 
-3.52593e-05      18.8588     -53.6052 
-3.47544e-05      17.3239      27.7627 
-1.78715e-05      14.1017      84.6292 
-0.000114046      16.4715      125.136 
4.87672e-05      16.5600     -131.254 
3.45021e-05      8.50416      34.3645 
-6.30642e-05      14.9327     -26.8728 
-1.76670e-05      17.2503     -129.919 
-3.35080e-05      15.2001      137.239 
-0.000177504      16.5285      34.8733 
-1.76136e-05      14.5584     -40.3213 
5.00304e-05      13.2190      148.077 
-4.64935e-05      15.2487     -156.460 
1.76187e-05      17.4200     -54.0374 
-0.000149056      15.0091     -94.1256 
9.73023e-05      19.9932     -133.177 
1.74701e-05      7.44714      62.3996 
1.73683e-05      16.7622     -120.788 
-0.000326869      11.9745      172.804 
0.000222866      13.7924      138.438 
0.000214986      12.6222     -51.6578 
-0.000420694      19.7325     -139.749 
0.000136430      15.2441      98.1473 
-4.99015e-05      9.14641      32.5440 
-4.84502e-05      16.1021     -19.4803 
9.18870e-05      13.8976     -14.2471 
1.71408e-05      6.52519     -11.6705 
-6.38369e-05      13.8087      88.0069 
-7.67207e-05      17.4480      56.5020 
8.02949e-05      16.1921      139.434 
-0.000195551      17.8895     -124.063 
3.20154e-05      10.8413     -44.2148 
0.000301989      8.68227     -137.101 
3.28927e-05      17.7770     -41.0310 
-6.52206e-05      16.5761      145.619 
0.000104234      10.3393     -14.2773 
-6.16481e-05      13.8561     -57.3763 
-7.23786e-05      18.1456      128.556 
3.29759e-05      17.4064      42.9054 
-6.02163e-05      17.5456      49.0909 
-4.79423e-05      10.1740     -6.43259 
4.79017e-05      10.1298     -15.1058 
1.68607e-05      14.1459     -169.739 
-4.62352e-05      14.0055     -67.7209 
0.000136192      14.5290     -2.01267 
-3.27791e-05      13.1297     -59.2165 
7.48842e-05      14.1544     -116.838 
-6.40020e-05      18.8766     -53.5319 
7.53636e-05      14.4556     -105.651 
1.67478e-05      13.7250      57.7688 
7.59203e-05      14.6570      71.7496 
-0.000230318      16.9332     -25.8383 
-7.38271e-05      15.0422      92.2872 
-1.66143e-05      15.7644     -149.337 
-6.37615e-05      13.2026     -101.003 
6.30554e-05      17.3362     -125.919 
1.65569e-05      7.13772     -76.1376 
-1.65148e-05      9.96680     -23.7860 
1.65513e-05      14.5152     -108.435 
0.000103004      18.9086      54.1665 
-0.000202503      20.1006      138.267 
-8.21463e-05      15.7411      29.2032 
-5.85000e-05      12.7383      36.5736 
3.14782e-05      2.16143     -76.3449 
-1.64357e-05      14.0775      84.3745 
-0.000277166      16.2569      150.361 
4.50880e-05      15.5526     -46.1710 
0.000118281      19.0000     -128.010 
3.14240e-05      11.9182     -160.288 
4.22864e-05      16.5570      42.9431 
-4.07182e-05      17.5941      48.3178 
1.61954e-05      8.22661     -25.2584 
-6.31833e-05      20.5796      44.0545 
-3.12403e-05      15.8639      159.407 
3.12957e-05      6.55459     -11.6174 
0.000162637      16.4382      148.659 
0.000129138      19.1520     -140.274 
-3.09451e-05      10.2035      134.881 
1.60731e-05      12.1259     -94.3973 
0.000100182      14.4433      76.4244 
-7.06869e-05      3.88659     -132.183 
5.84809e-05      15.0288     -152.413 
-3.11887e-05      15.4339     -130.190 
-0.000208069      17.2808      47.2507 
-8.52454e-05      16.2311      133.876 
1.58503e-05      18.8828      48.9944 
-1.58472e-05      16.5213     -28.0549 
3.06316e-05      5.61118     -88.7740 
-1.57995e-05      12.0797      70.2605 
5.78792e-05      15.2927     -86.8525 
4.58831e-05      14.4014      108.586 
-5.77591e-05      16.7410      33.3781 
0.000158821      18.3561     -55.7909 
-7.08253e-05      11.9482      145.952 
-5.65765e-05      12.1833     -1.27052 
8.40054e-05      12.8820      15.3971 
7.10121e-05      13.0807     -57.0748 
1.55284e-05      14.8567     -107.997 
2.84867e-05      18.1070     -145.599 
1.55222e-05      13.3050     -98.1676 
1.54557e-05      14.0611     -144.378 
8.68584e-05      14.7852      101.470 
-8.74566e-05      20.9616      44.0717 
0.000114291      20.3374      48.4088 
1.53920e-05      11.8751     -14.6334 
2.95916e-05      11.6707     -133.541 
-0.000363037      17.4238     -36.8117 
-7.23967e-05      15.3340      125.526 
-5.77662e-05      14.7765     -157.184 
-0.000281115      11.8881      171.583 
-4.37636e-05      16.6564     -43.7588 
-4.05993e-05      15.4928      75.0766 
9.33565e-05      18.5108     -142.574 
1.52915e-05      9.76236     -57.6781 
9.59727e-05      16.8861     -45.2881 
-1.53016e-05      7.41227      5.34409 
-0.000160941      9.56794     -44.1103 
8.26050e-05      6.90163     -77.9570 
-0.000500236      20.6005      44.1145 
-0.000174921      19.0324      36.3463 
1.51486e-05      18.8632      49.0632 
1.51555e-05      17.2222     -151.606 
0.000234481      14.8474     -107.886 
-0.000138320      14.0805      84.2529 
4.42427e-05      15.4117     -75.3426 
1.50445e-05      13.3994     -29.9506 
-0.000380117      19.8927      50.1388 
-4.28225e-05      11.9554     -139.273 
4.29765e-05      15.3350      34.1566 
-0.000211292      13.2084     -101.131 
0.000394054      15.5192      171.777 
9.36163e-05      17.3493      118.957 
-0.000232670      16.6009      145.678 
-2.90067e-05      11.0333      46.1022 
-0.000122757      18.8945     -53.4587 
-5.53290e-05      19.8400      131.014 
1.49244e-05      2.43668     -52.0043 
9.31821e-05      6.18594     -98.3631 
8.01886e-05      13.8681      137.717 
-2.90186e-05      9.17173      32.4431 
-9.15868e-05      16.8141      154.533 
0.000186340      17.3119     -125.977 
-1.47823e-05      9.29323     -113.999 
0.000191358      16.1693      139.364 
8.42170e-05      18.5810      145.591 
-8.10118e-05      19.9811     -50.2382 
-1.47065e-05      13.0253      157.806 
0.000132266      13.4144     -30.0617 
5.17818e-05      10.5949     -28.9576 
0.000187968      20.9879     -136.565 
1.45534e-05      18.4213     -133.283 
4.17500e-05      4.65854      17.6177 
9.03893e-05      15.9566     -46.3719 
-1.45205e-05      13.7633      113.100 
-6.86161e-05      17.4646      56.4199 
-1.44561e-05      7.43944      5.09240 
-0.000116302      14.8289     -97.5573 
-1.44335e-05      9.60227     -78.8297 
1.44264e-05      10.0564      92.0526 
5.37379e-05      14.5554      156.817 
1.44118e-05      8.43754     -92.4466 
4.02222e-05      13.6170      129.546 
1.44155e-05      13.5322     -78.4913 
6.20235e-05      13.1465     -30.1331 
1.43621e-05      13.3093     -98.2955 
-0.000116682      11.3505      94.8505 
-7.65024e-05      13.7104      179.875 
-2.71619e-05      19.0175      51.3402 
-0.000261296      20.3441     -137.630 
1.43180e-05      2.41309     -51.5656 
0.000103945      17.8317     -128.374 
-4.19337e-05      19.7672     -50.8514 
-0.000134663      20.1507      131.378 
7.80123e-05      18.8440      49.1304 
5.26114e-05      16.2323      50.2477 
0.000101602      14.3918      108.473 
-6.53821e-05      15.8920      159.445 
2.74984e-05      6.57973      43.1515 
-0.000146728      14.9980     -98.0502 
-7.90942e-05      13.7777      88.1273 
-0.000166104      16.4818     -65.0217 
-2.76204e-05      13.0140      157.928 
4.02209e-05      15.8979     -151.112 
-1.41053e-05      12.8270     -125.288 
2.80085e-05      17.3479      52.3772 
-0.000432855      17.1191      26.6560 
8.04449e-05      16.2754     -123.954 
0.000307623      15.3827     -75.3143 
0.000142552      20.4539     -43.8108 
0.000133403      17.9785     -37.8830 
3.76820e-05      11.8899     -160.240 
3.96860e-05      20.0137     -133.239 
-1.37894e-05      11.8682      13.2982 
-1.37811e-05      15.0278      96.1889 
3.74718e-05      13.0555     -57.0032 
1.37211e-05      17.8194     -41.0404 
-0.000123788      10.6634      80.9347 
3.87240e-05      7.93425     -144.387 
-1.36834e-05      9.13735      32.8039 
-5.15253e-05      9.77635      85.7743 
0.000212668      15.7976     -14.8541 
9.76407e-05      16.9691     -57.4892 
-6.42743e-05      12.1425     -148.744 
5.20627e-05      16.7882     -53.3560 
0.000140505      17.3900      52.3592 
5.25957e-05      18.6601      50.2174 
7.55185e-05      18.9427      53.5668 
-0.000102104      9.89198      65.0679 
-1.35878e-05      17.5558      128.964 
-8.67861e-05      14.9368     -121.616 
-0.000493653      16.3624      67.8082 
-5.05185e-05      12.8182     -99.8356 
0.000145665      16.4587     -53.6740 
-0.000148439      18.4791     -47.8967 
1.34786e-05      15.8708      46.2260 
-0.000213648      20.9623      43.9557 
-5.12729e-05      16.6347     -43.8303 
-1.34593e-05      16.3298     -62.5401 
1.33946e-05      11.5105      68.9207 
6.40464e-05      20.0181      42.8749 
-0.000137016      19.7249     -50.8640 
-0.000172830      18.0397      31.8131 
-5.14842e-05      13.1401    -0.130879 
0.000287741      16.1772     -55.4254 
-5.06411e-05      15.0603      156.397 
0.000114227      15.7976     -75.1459 
8.29261e-05      14.4267     -105.683 
0.000289649      14.7793      101.356 
-2.58654e-05      10.6638      38.0295 
-0.000286784      19.4523      139.630 
2.62052e-05      16.2854     -159.963 
3.87397e-05      14.5000     -2.13536 
-2.56504e-05      9.95681     -128.147 
-6.27754e-05      15.0320     -67.2213 
-2.58732e-05      17.6080     -144.360 
-1.31734e-05      15.8475     -156.929 
-3.79583e-05      15.2848     -138.740 
6.12984e-05      16.9075     -45.3596 
1.31233e-05      16.1943     -55.3379 
4.96556e-05      8.76331     -91.5702 
0.000378535      19.0185     -128.081 
-2.56287e-05      12.8343     -125.102 
4.92437e-05      20.0936      43.7290 
1.30793e-05      13.8686     -14.2776 
1.30857e-05      14.9105      33.1782 
-4.74258e-05      19.4099      139.640 
3.75791e-05      9.23179     -3.91507 
-7.41121e-05      18.5604      39.5570 
-7.38155e-05      16.3564     -62.5885 
-1.30120e-05      16.1171     -27.8536 
-0.000130041      17.9192     -125.047 
0.000224087      20.3175      48.4721 
-6.13298e-05      2.05802      36.6986 
-0.000162409      11.9944      5.45308 
1.29795e-05      14.6359     -176.593 
6.02620e-05      8.80180      168.996 
0.000260689      19.5236     -38.2622 
2.49720e-05      14.4212      76.2805 
-1.28978e-05      13.5624     -91.0145 
-3.74950e-05      14.2572     -30.6116 
-3.75871e-05      20.3997      138.339 
-8.38121e-05      15.5972     -128.831 
-2.51407e-05      13.9057     -51.7448 
1.28501e-05      15.2933      34.1267 
1.28342e-05      15.1246     -178.635 
-6.08109e-05      12.7718     -3.36488 
7.32066e-05      15.9659      27.0468 
-3.64872e-05      17.5324      129.026 
3.64557e-05      13.8589      73.5275 
0.000108023      14.2290     -128.925 
1.27688e-05      18.0735      44.8654 
0.000263922      18.8979     -125.633 
-1.27424e-05      12.6484     -140.003 
-1.27522e-05      12.9862      157.878 
1.27565e-05      16.0871      48.4018 
0.000206609      14.6659     -176.600 
-6.16299e-05      20.3643     -137.567 
-0.000295980      20.0782      138.210 
1.27134e-05      14.8573     -175.948 
-0.000118289      18.1615      136.071 
-0.000206897      15.4261      148.196 
9.30635e-05      13.8773     -104.909 
6.91369e-05      10.2271     -77.6372 
0.000140891      15.4805     -11.8546 
-0.000128395      14.8626     -97.6568 
1.26601e-05      15.2944     -86.7402 
6.03764e-05      16.2751     -160.062 
-6.13633e-05      18.8652     -53.7327 
1.26622e-05      20.6147      42.6988 
-1.26429e-05      16.5286      111.957 
-3.70194e-05      17.6956      141.401 
0.000130180      16.2921     -124.041 
-9.43282e-05      4.14523     -97.4891 
2.33544e-05      14.2101     -128.831 
3.59804e-05      12.3045     -14.5447 
-9.29703e-05      19.4328      139.697 
-3.49806e-05      13.4068      44.8209 
2.44764e-05      10.8544      74.1199 
0.000112626      17.2275     -134.013 
0.000135816      21.3438     -136.024 
-2.44060e-05      7.36704      102.226 
1.24319e-05      17.3746      134.372 
5.91369e-05      14.9932     -4.82032 
2.44864e-05      10.4264     -150.339 
-3.58959e-05      15.9708      72.9596 
4.80981e-05      18.0310      44.8651 
1.24084e-05      4.64954      17.2652 
-2.40372e-05      16.1577     -27.8980 
0.000117847      11.3741      114.132 
-2.45074e-05      12.6255     -139.916 
1.23548e-05      15.2944      142.973 
-0.000303921      20.5778     -47.6603 
1.22897e-05      13.8017     -3.86256 
1.22842e-05      11.7329     -133.860 
-1.23058e-05      14.9836      4.36283 
-1.22755e-05      7.36577      125.048 
-2.35077e-05      12.7142      36.6542 
2.34518e-05      18.9485      53.6924 
4.67655e-05      14.1740      108.895 
8.39156e-05      14.2222     -3.86937 
1.22356e-05      12.7498     -134.523 
7.81843e-05      21.1571     -46.5506 
7.04433e-05      14.4700     -2.13979 
2.40276e-05      13.6380      4.79427 
1.21907e-05      15.8284      46.2293 
1.21911e-05      16.4495      154.043 
1.21455e-05      17.3532      134.441 
-0.000213273      13.7768      88.2521 
-2.40387e-05      16.4672      111.705 
-3.43843e-05      15.0053      1.49010 
4.55803e-05      9.95065     -136.100 
0.000213777      17.1699     -59.6718 
-9.32956e-05      16.2308      150.308 
2.41680e-05      12.5987     -51.5731 
3.59649e-05      11.5597      159.968 
4.72415e-05      16.8428      126.379 
1.20654e-05      18.8244      49.1995 
-4.69115e-05      16.2031     -71.4316 
-5.89079e-05      16.1868     -119.417 
5.80640e-05      15.6708      69.7272 
2.37544e-05      10.6593     -66.9709 
-4.69793e-05      17.7190      141.461 
-0.000134460      14.9859      4.47726 
5.83431e-05      19.9756      42.8703 
2.36507e-05      15.1690      100.598 
-1.20047e-05      15.9829     -27.8644 
-4.69330e-05      15.8815      159.546 
-6.93500e-05      18.8829     -53.6593 
-1.20030e-05      18.1222      128.615 
4.66531e-05      14.9776      34.3907 
-4.67823e-05      12.3677     -85.5493 
1.19888e-05      11.7746     -134.070 
-4.61388e-05      19.6012      44.7534 
5.73264e-05      17.3742      134.512 
4.63007e-05      8.76254     -91.3740 
-7.42695e-05      16.9829     -150.356 
0.000224533      20.4755     -43.7527 
0.000181170      18.7802      126.686 
0.000135337      21.5530      44.6629 
-9.08021e-05      17.0955      125.140 
-4.55009e-05      16.1391      68.0601 
1.18938e-05      6.93658     -126.027 
-2.31530e-05      20.1930      131.386 
-5.61840e-05      6.16241      6.71310 
-2.31992e-05      17.8727     -123.983 
5.64299e-05      18.6793      50.1467 
2.34921e-05      11.2783     -82.8182 
2.33231e-05      11.8615      78.1797 
0.000232654      17.4321      52.3413 
-5.64560e-05      11.8629      171.418 
-5.71919e-05      12.6219     -139.724 
-4.33954e-05      17.6149     -144.496 
-5.63689e-05      17.2576      48.5237 
-3.48195e-05      19.0442      47.3617 
3.47667e-05      13.8257      137.725 
1.17724e-05      15.6266      73.7224 
-5.69170e-05      17.8047     -43.4306 
6.85208e-05      17.2700     -125.955 
-1.17626e-05      8.75629     -60.8891 
-4.52885e-05      7.36074      101.997 
-0.000110927      13.2609     0.648445 
0.000145398      11.5315      159.917 
1.17479e-05      17.3058      52.3952 
-0.000113754      19.6600     -50.8228 
7.77681e-05      20.1233      42.9464 
1.17396e-05      12.7284     -134.618 
-7.88117e-05      19.0082      36.3999 
7.88624e-05      14.4008     -22.0221 
2.16031e-05      9.26174     -3.90239 
2.31553e-05      11.7955     -134.175 
4.53905e-05      12.9450      175.215 
0.000332037      14.2202     -3.74871 
-1.16790e-05      16.3633     -52.3739 
5.33396e-05      6.19037     -98.6379 
-1.16399e-05      19.1006      130.796 
-3.36714e-05      18.2497      128.056 
-0.000155173      13.2142     -101.258 
-0.000101184      20.0912      138.814 
-0.000131068      15.8199     -156.886 
1.15958e-05      18.1655     -51.9760 
2.30991e-05      18.5683     -34.9996 
2.30692e-05      15.6004      169.922 
-3.37342e-05      14.2725     -30.7153 
-1.15966e-05      12.1526     -1.13218 
5.59516e-05      17.0147     -27.5143 
-3.44304e-05      19.7357     -130.931 
-6.67552e-05      13.0010      164.198 
0.000111132      17.8782     -57.7514 
3.38911e-05      6.91233     -126.173 
5.62811e-05      11.2485     -82.7991 
-0.000121263      16.4319     -118.578 
-1.15456e-05      19.0943     -47.8655 
6.53065e-05      8.88013     -90.1937 
1.15256e-05      9.11419     -155.292 
-3.40801e-05      15.3437     -22.6548 
2.24298e-05      16.5213      28.0549 
-4.48697e-05      15.6597      66.0364 
3.35395e-05      18.9648     -135.000 
-3.39895e-05      18.4132      128.251 
9.94845e-05      8.15409      85.5665 
7.52765e-05      10.6435     -66.7590 
1.14790e-05      14.8942     -103.870 
-4.36605e-05      8.74173     -61.0610 
7.70281e-05      13.8348      138.428 
-1.14404e-05      13.1701    -0.130581 
-1.14454e-05      15.0411     -7.56537 
8.78392e-05      16.3034     -160.098 
-0.000164725      16.4691     -65.1164 
-0.000109767      13.5407     -174.151 
2.23623e-05      3.32774      154.359 
2.27240e-05      17.2637      52.4133 
-4.48055e-05      14.9017     -158.134 
-7.75349e-05      20.5282      132.808 
-3.33685e-05      12.6372     -67.0860 
7.74980e-05      15.9523      26.9508 
5.53053e-05      16.1634     -157.290 
-0.000120699      19.7584     -130.874 
1.13852e-05      3.56120      119.806 
-4.44215e-05      12.8428     -99.6841 
-5.56710e-05      15.7503      163.740 
-0.000240778      16.1936     -71.5323 
-2.26463e-05      17.5966      48.4557 
2.26516e-05      14.8900      141.051 
-2.25997e-05      13.1788     -177.912 
3.22026e-05      13.3884     -30.1261 
2.25837e-05      8.88041      120.897 
-1.13498e-05      12.0672     -101.616 
5.55037e-05      16.8669      126.319 
0.000120657      13.8851     -105.028 
6.60541e-05      15.7657      110.262 
-0.000131555      20.3599     -48.4648 
2.24482e-05      14.4359      75.5578 
-3.33534e-05      16.8412      154.577 
-7.65551e-05      19.1145     -47.7988 
3.32170e-05      18.4770      134.671 
-4.42100e-05      2.04023      36.0227 
1.13287e-05      11.9237     -118.886 
-6.58311e-05      19.0034     -143.926 
6.35117e-05      8.15183      85.7769 
-3.34626e-05      19.0238      47.4282 
-3.29272e-05      12.3654     -85.6880 
1.12909e-05      14.9014     -103.982 
-1.13275e-05      16.6131     -43.9020 
-3.34118e-05      14.9525     -121.714 
-8.74410e-05      15.3095      75.4747 
-6.63517e-05      15.8081     -156.986 
4.40598e-05      16.1888      139.284 
1.12739e-05      13.6086     -48.9327 
4.41191e-05      12.7073     -134.522 
7.75070e-05      18.5929     -34.9466 
7.61283e-05      3.42497      161.093 
6.58616e-05      13.8035      137.642 
3.33539e-05      14.9535      34.4540 
-1.12816e-05      17.1127     -144.777 
2.21331e-05      11.8379     -134.178 
0.000153287      14.4401     -2.14424 
-0.000133367      12.3354     -85.6775 
-6.55561e-05      16.7587     -127.362 
-0.000119703      18.7595     -54.9616 
-1.12176e-05      15.1982     -112.516 
2.22677e-05      10.6094     -29.0995 
6.59856e-05      17.6041      36.6169 
1.12134e-05      14.5949      156.755 
8.77014e-05      19.9537      42.9290 
0.000195948      19.8575     -42.2447 
-3.30353e-05      17.8690     -43.3682 
5.40437e-05      11.7277     -105.886 
-2.21703e-05      19.7017     -50.8089 
-0.000108924      14.3327      94.9226 
-1.11728e-05      10.6304     -128.583 
-3.30079e-05      16.1721     -119.324 
1.11792e-05      18.6218      140.359 
-7.63326e-05      15.9428      72.9288 
-3.33495e-05      18.9007     -53.5860 
-1.11489e-05      16.2267     -32.9258 
3.29329e-05      14.2363      112.944 
8.73704e-05      20.3907     -46.2525 
-3.30312e-05      15.9201      159.483 
4.38787e-05      14.6187     -113.461 
-3.28458e-05      19.3568     -43.1165 
8.69466e-05      18.3392     -55.8684 
-8.70547e-05      15.1537      96.3656 
5.45489e-05      5.43972      38.9585 
-5.49209e-05      14.6835      173.194 
-5.46046e-05      14.9129     -158.027 
-2.18894e-05      14.8909      138.021 
5.44577e-05      17.1835      135.425 
-5.47386e-05      17.7570      149.882 
1.10850e-05      16.4126      148.605 
-2.19683e-05      10.6491     -128.710 
-3.27365e-05      18.4590     -47.9659 
7.61289e-05      14.8762     -100.222 
2.18671e-05      19.7840     -41.6189 
5.43233e-05      17.0827      52.7078 
1.10687e-05      11.8170     -134.074 
1.10557e-05      16.4226      153.997 
9.77206e-05      14.0817      32.4714 
4.38091e-05      16.1661      139.214 
2.19625e-05      14.8382     -107.776 
1.10368e-05      15.1876     -52.3827 
7.34011e-05      10.1615      68.8908 
2.19708e-05      18.7072     -132.464 
-3.27069e-05      17.6165      48.3827 
1.10297e-05      16.1136      28.9522 
0.000119603      15.1680     -81.4706 
-3.27559e-05      15.3321     -22.5513 
2.18119e-05      10.4755     -149.544 
-2.17816e-05      15.0576      96.1765 
8.65235e-05      15.7421     -107.296 
-1.10230e-05      20.3422     -137.510 
1.09883e-05      7.13377     -132.617 
-2.19323e-05      14.6576     -161.008 
-1.09787e-05      20.4495      45.0000 
0.000173111      15.2060     -52.2931 
9.74809e-05      15.8731      107.716 
-7.58894e-05      20.3726      138.044 
7.57737e-05      20.9661     -136.508 
-0.000108422      17.9437     -124.992 
2.17624e-05      8.86503      120.731 
-7.58371e-05      19.5831      43.9458 
-1.09839e-05      15.8252     -159.470 
1.09613e-05      17.2454      52.4924 
-7.61195e-05      19.6790     -50.7550 
-3.26611e-05      15.6161     -128.917 
-0.000108190      18.8894     -53.7865 
5.40635e-05      16.1399      28.9007 
7.57314e-05      16.7318     -141.918 
6.49685e-05      15.3458     -103.684 
-8.67693e-05      20.3400     -48.5281 
-1.09332e-05      14.4344     -147.995 
2.17424e-05      14.9907     -4.70600 
2.17965e-05      15.7045     -107.224 
3.24855e-05      14.8466     -100.242 
-2.17286e-05      11.9447      172.786 
1.09014e-05      18.5583      38.3704 
-2.16962e-05      18.4318      128.325 
-5.40382e-05      17.5400      145.876 
-7.56538e-05      14.5826     -95.3116 
7.56639e-05      11.2187     -82.7799 
-8.65109e-05      14.5158     -17.6866 
-0.000151253      15.3092      92.0225 
1.09173e-05      11.4138      114.208 
1.08559e-05      15.2151      73.3874 
-9.71612e-05      20.9673      133.376 
-5.41206e-05      16.8156     -120.087 
4.34203e-05      18.6169     -34.8950 
3.24512e-05      16.0706      108.166 
-3.24716e-05      14.5977      96.9650 
-3.24404e-05      15.1206      96.2651 
9.45372e-05      11.7360     -106.027 
2.16945e-05      10.4822     -150.135 
-1.08846e-05      11.8332      171.397 
6.48264e-05      16.3512      56.9809 
4.31565e-05      17.0792      37.9368 
-4.32301e-05      14.6573      173.063 
-1.08794e-05      4.60577     -76.0566 
4.32866e-05      18.8401      126.778 
-3.23909e-05      20.3503      137.988 
7.55330e-05      17.0286     -27.6039 
-1.08377e-05      16.2015     -32.9835 
-1.08334e-05      18.9001      36.8690 
-0.000118625      21.6157      135.056 
3.23883e-05      14.6958     -176.607 
4.31530e-05      17.2875      52.4740 
-2.16582e-05      18.9123     -53.3856 
1.08254e-05      14.6343      156.694 
-1.08361e-05      20.3219     -137.572 
2.15913e-05      19.6510      40.9138 
-9.70872e-05      17.8601     -34.9447 
-2.15941e-05      20.0687      138.758 
2.15700e-05      16.0063      27.0936 
-2.16052e-05      14.7428     -18.8785 
-2.16116e-05      18.9242      36.8145 
3.24003e-05      15.3428      17.4079 
6.46808e-05      14.8552     -176.064 
-6.46547e-05      18.3392     -49.3773 
-4.30730e-05      18.1814      37.6257 
1.08098e-05      14.8760     -107.851 
-2.15542e-05      16.3426     -62.6820 
-1.08073e-05      17.7612      141.446 
2.15710e-05      13.8316     -3.85419 
1.07971e-05      14.1456      108.935 
-2.15545e-05      17.0350     -127.415 
5.39186e-05      17.8622     -57.8329 
-2.15751e-05      16.1225      67.9213 
2.15647e-05      13.5641     -104.867 
-8.25235e-05      19.6569      41.5970 
2.15985e-05      15.8399     -110.047 
4.31735e-05      15.1863      73.3550 
3.23001e-05      15.3334     -76.9961 
-6.46450e-05      15.8893     -68.8619 
-4.31111e-05      20.1308      41.3141 
1.07934e-05      18.8120      126.046 
4.30901e-05      18.6415     -34.8422 
3.23563e-05      14.2409      107.786 
-1.07902e-05      19.6014      44.6293 
8.62542e-05      16.5062      21.7637 
0.000106081      11.4261      114.345 
-7.54139e-05      19.6748     -50.6320 
1.07819e-05      13.1266      177.116 
-4.22058e-05      6.13610      7.01725 
4.31350e-05      3.45338      161.254 
-8.38320e-05      4.14925     -97.9000 
-4.31195e-05      12.9640      164.290 
5.40249e-05      18.7981      126.759 
-1.07816e-05      20.4919      45.0000 
-7.54262e-05      18.0386     -50.8042 
1.07805e-05      15.5099     -11.8318 
1.07571e-05      17.6282      36.5587 
-2.15665e-05      17.6394     -144.553 
2.15740e-05      13.2676      101.741 
2.15346e-05      15.3685     -82.5967 
8.63012e-05      15.3804      17.4811 
-3.23069e-05      15.0362     -98.2607 
3.23433e-05      15.6872     -102.257 
1.07577e-05      15.2685      34.1899 
-1.07615e-05      14.6860     -161.046 
5.39341e-05      17.7654     -55.6662 
1.07717e-05      13.8297     -3.73012 
4.31173e-05      15.4079     -102.711 
-1.07455e-05      15.0061      1.60466 
-1.07496e-05      18.9784      36.5790 
-2.15195e-05      20.6691      133.470 
5.38261e-05      16.1085      108.234 
2.15673e-05      10.4863     -149.769 
1.07751e-05      16.5351      43.0139 
2.15569e-05      20.1658      42.9508 
-1.07778e-05      20.2129     -48.5503 
4.30702e-05      15.8147      110.428 
-1.07671e-05      14.5679      96.9793 
4.31327e-05      13.5322      3.93961 
-4.31462e-05      11.8173     -99.0568 
4.31388e-05      15.3111      79.6153 
2.15349e-05      18.6986      50.0761 
3.23596e-05      15.1339     -81.5662 
1.07918e-05      16.2397     -47.1721 
-2.15627e-05      16.6257      145.736 
3.23578e-05      18.7944      125.972 
-1.07632e-05      18.9482      36.7601 
4.31197e-05      19.0421     -128.025 
4.31293e-05      18.6662     -34.7896 
1.07483e-05      15.0039     -1.26093 
-1.07793e-05      17.8472     -43.4344 
2.15567e-05      15.8220     -110.186 
2.15901e-05      14.5857     -175.991 
-1.07762e-05      20.8245     -47.1597 
1.07652e-05      10.4972     -149.993 
-2.15565e-05      19.0985      139.906 
2.11638e-05      13.0392     -57.1138 
1.07811e-05      19.9332      42.8658 
2.15839e-05      19.8065     -41.5613 
2.15691e-05      15.1383     -81.4538 
-1.07689e-05      15.9340      73.0320 
2.15836e-05      15.0215      10.7037 
-1.07820e-05      19.0019      36.5264 
2.16013e-05      20.9443     -136.452 
1.07805e-05      13.7997     -3.73822 
1.08186e-05      13.9493      111.709 
2.15923e-05      15.0032     -1.14634 
-1.07778e-05      2.06458      35.5328 
1.07745e-05      17.6712      44.3806 
-1.07807e-05      14.3863     -67.1785 
-2.15759e-05      16.5859     -65.9862 
2.15666e-05      17.1248      52.6887 
-1.07858e-05      15.2158     -97.3640 
-1.07727e-05      13.2306     0.519941 
3.29508e-05      15.7797     -107.367 
-1.07854e-05      18.0619      144.805 
1.07773e-05      16.0467      27.1402 
-1.07786e-05      13.2201     -101.386 
1.07811e-05      14.9891     -112.972 
1.08058e-05      16.5146      42.9378 
-1.07783e-05      19.6898     -50.4416 
1.08013e-05      11.5033      159.865 
-1.08113e-05      19.0261      36.4726 
-1.08229e-05      15.2781      91.9139 
-1.08036e-05      11.4890      171.742 
-5.44002e-05      18.5610     -125.129 
-1.41078e-05      18.5783     -125.204 
-0.000182628      15.0361      1.60146 
0.000190452      17.5946     -125.072 
-9.57442e-05      14.8607      74.7862 
-0.000124477      17.6364      48.3098 
-3.75344e-05      18.6129     -125.355 
-8.17074e-05      18.7005      55.0594 
-9.01431e-05      19.6283     -130.971 
-6.84794e-05      17.2009     -41.1104 
-0.000120444      17.5091      129.088 
-0.000120385      19.1751     -42.4005 
6.54812e-05      16.9986     -140.945 
9.93582e-05      18.8658     -52.3653 
-9.83072e-05      13.7212      33.1347 
-1.21908e-05      18.5364     -125.182 
3.48397e-05      15.1075      87.2669 
2.37745e-05      15.9991     -46.3683 
-5.53157e-05      15.6127     -40.7922 
-5.26498e-05      18.5437     -125.053 
-3.32520e-05      20.0487     -134.090 
-4.27184e-05      16.3169     -39.7796 
-9.39981e-05      18.6303     -125.431 
3.21349e-05      17.2484     -134.085 
-6.25822e-05      19.8013     -130.082 
-2.21435e-05      14.1807      97.1709 
-2.13145e-05      17.9678      147.479 
-3.31332e-05      18.5192     -125.106 
5.28181e-05      13.3625     -30.1907 
-3.27188e-05      19.6707     -130.980 
-6.30279e-05      18.1802      144.605 
3.25812e-05      17.0641     -140.994 
6.25593e-05      19.0425      132.766 
4.26434e-05      16.7082     -141.854 
4.15574e-05      10.0075      110.718 
3.22105e-05      18.1502      36.8708 
-3.12812e-05      11.6857      165.428 
-5.22895e-05      15.6442      71.3208 
4.24391e-05      8.66031     -136.966 
-2.16006e-05      13.2077     -178.046 
6.23322e-05      18.9964      138.329 
3.15582e-05      16.3480     -32.0282 
-5.13309e-05      7.96047     -14.4043 
-5.09653e-05      12.0719      69.9442 
2.06382e-05      17.3362     -54.0815 
-5.06864e-05      13.6906      175.602 
-2.09479e-05      16.4870     -118.711 
2.09317e-05      15.1626     -126.552 
6.14159e-05      19.3130     -133.238 
-1.06607e-05      13.7743     -178.626 
1.06344e-05      11.1647      157.570 
1.06363e-05      18.5626      44.4104 
-3.10072e-05      18.9987      51.4109 
1.05456e-05      16.8538     -131.464 
4.08567e-05      12.5590      44.4190 
-2.05039e-05      16.9409      123.297 
5.03325e-05      17.8391     -41.1131 
-2.03584e-05      11.4371      59.0614 
-8.10072e-05      15.5927     -128.986 
-1.04438e-05      20.4496     -44.7621 
6.02611e-05      7.11171     -132.781 
-3.03578e-05      15.8533      159.508 
2.02678e-05      8.91010     -90.0000 
-4.03589e-05      18.2948     -127.471 
5.02947e-05      14.8486     -149.393 
-2.03915e-05      13.3297      75.9317 
-2.02150e-05      13.8043     -178.629 
-5.09403e-05      16.8007      124.598 
2.03392e-05      14.9449      83.5451 
1.02619e-05      15.3165      100.495 
1.02060e-05      18.6050      44.4117 
-1.02103e-05      18.8868     -41.8451 
-1.02084e-05      10.6726     -128.609 
2.02392e-05      18.5987      140.300 
-1.01984e-05      14.8686      137.944 
1.99640e-05      16.0880     -30.7254 
-2.01091e-05      20.4710     -44.7030 
3.00556e-05      14.1006     -116.676 
-2.01999e-05      15.5899     -40.8642 
1.01117e-05      11.1762      157.428 
1.00963e-05      10.0181      110.879 
-5.02095e-05      14.2314     -30.6731 
-2.97378e-05      15.7521      34.4471 
1.00797e-05      19.0299      134.297 
1.00543e-05      14.5570      54.9025 
2.00254e-05      7.14889     -130.577 
2.97936e-05      17.3900     -37.6408 
1.00175e-05      17.2943     -54.1037 
-9.94678e-06      18.6722     -125.452 
-9.95948e-06      20.1705      131.442 
-9.92902e-06      13.7066      99.9558 
-9.94030e-06      15.0353      1.48713 
4.01259e-05      9.92986     -136.225 
-1.96465e-05      13.4341      96.4109 
-3.05922e-05      19.9495     -43.2945 
-3.97351e-05      12.1821    -0.988247 
2.98484e-05      20.7855      137.398 
2.98458e-05      11.9319      86.5387 
3.98476e-05      6.89465     -125.972 
-2.98921e-05      17.8561     -138.678 
1.97932e-05      9.33847     -87.6052 
9.96603e-06      18.1840     -51.9015 
1.97417e-05      18.4183     -38.1203 
-1.95982e-05      14.4580      138.872 
1.97302e-05      15.2705      142.905 
9.88352e-06      15.8381      155.135 
-1.95596e-05      17.1373      125.165 
-1.01196e-05      12.2121    -0.985818 
1.97150e-05      14.7503     -75.0320 
1.96875e-05      17.2700     -134.016 
-9.87359e-06      16.5458      42.1325 
-1.94978e-05      20.5134     -44.7036 
9.85138e-06      15.8653      155.180 
9.79026e-06      11.5494      68.8353 
-9.75181e-06      13.2709     -154.420 
-9.73228e-06      17.6350      136.584 
9.69409e-06      14.9022     -65.4985 
9.68721e-06      12.6961     -60.4046 
9.66979e-06      8.84045     -176.106 
-9.66893e-06      19.0017      47.3670 
! Tentative model.
! Flux (Jy) Radius (mas)  Theta (deg)  Major FWHM (mas)  Axial ratio   Phi (deg) T \
! Freq (Hz)     SpecIndex
9.94892e-06      15.1250     -178.522 
