! Center RA: 12 21 31.69052,  Dec: +28 13 58.50022 (2000.0)
! Established model.
! Flux (Jy) Radius (mas)  Theta (deg)  Major FWHM (mas)  Axial ratio   Phi (deg) T \
! Freq (Hz)     SpecIndex
 0.0786815      0.00000      0.00000 
 0.0279750    0.0300000      90.0000 
 0.0118242    0.0300000      180.000 
 0.0113142     0.123693      75.9638 
0.00456041     0.152971      78.6901 
0.00393664     0.241868      97.1250 
0.00704240     0.271662      96.3402 
0.00274728     0.301496      95.7106 
0.00290566     0.330000      90.0000 
0.000268460     0.180000      90.0000 
0.00441050    0.0424264     -135.000 
0.00301747     0.212132      98.1301 
0.000704361    0.0948683      71.5651 
0.00240215     0.360000      90.0000 
0.00143198     0.108167      56.3099 
0.000138491     0.247386      104.036 
! Tentative model.
! Flux (Jy) Radius (mas)  Theta (deg)  Major FWHM (mas)  Axial ratio   Phi (deg) T \
! Freq (Hz)     SpecIndex
0.00132698     0.212132      98.1301 
0.00110819     0.180000      90.0000 
0.000216279    0.0424264     -135.000 
0.000143477     0.123693      75.9638 
0.000343524     0.247386      104.036 
0.00107386    0.0300000     -90.0000 
0.00247258     0.844808      106.504 
0.00195531     0.108167      56.3099 
0.000655602     0.295466      113.962 
6.22995e-05     0.764853      101.310 
0.000235424     0.759539      99.0903 
0.000233901     0.361248      94.7636 
0.000369753     0.391152      94.3987 
0.000771859     0.725603      97.1250 
0.000216360    0.0424264     -45.0000 
0.000106103    0.0848528      45.0000 
0.000436582    0.0600000     -90.0000 
0.000197389     0.335410      116.565 
0.000145528    0.0670820     -26.5651 
0.000752547     0.390000      90.0000 
0.000818503     0.563649      115.201 
4.69053e-05     0.551543      112.380 
9.19763e-05    0.0848528     -45.0000 
0.000965215     0.349857      120.964 
0.00148388     0.964210      95.3558 
0.000577683     0.108167     -33.6901 
0.000350931    0.0670820     -116.565 
0.00109375      6.49173      102.816 
0.000219225     0.550727      119.358 
0.000517507      1.57892      104.300 
0.000595268     0.134164     -26.5651 
0.00104574     0.882326      107.819 
0.00149892      3.80539      104.146 
0.000567866      1.47092      101.768 
0.000769489     0.722496      94.7636 
0.000500556      6.38331      105.539 
0.000254599      8.85732      102.718 
0.000588333      1.58660      105.350 
0.000170148     0.569210      108.435 
0.000854629      9.32165      106.452 
3.17541e-05     0.934345      95.5275 
0.000179326     0.789177      81.2538 
0.00108998      8.86397      102.907 
0.000586258      3.23110      111.801 
0.00116205      2.58157      141.132 
0.000761720    0.0948683     -108.435 
5.44638e-05     0.540833      123.690 
0.000776455      3.35477      117.711 
0.000374534     0.794292      79.1145 
0.000364795      5.45514      108.933 
0.000221351     0.391152      85.6013 
0.000568677      9.84622      96.6486 
0.000152442      8.87229      101.310 
0.000173777      2.25080      91.5275 
0.000555027     0.161555     -21.8014 
0.000304198     0.366197      124.992 
0.000752549      5.53636      101.249 
0.000227573      6.49845      103.074 
0.000480695      1.43562      100.840 
0.000436250     0.566039      122.005 
0.000449288      5.12640      106.314 
0.000343959      8.86646      101.120 
0.000242466      2.16083      88.4089 
0.000576118      4.14738      104.237 
4.60018e-05      6.48257      106.674 
8.55996e-05     0.108167      33.6901 
0.000502788      1.61555      105.068 
6.75836e-05     0.967471      97.1250 
0.000187891      2.25020      90.7639 
6.63671e-05      3.34093      117.255 
0.000198024      9.86813      109.537 
2.26831e-05      1.84567      97.4716 
0.000524916      6.21898      101.689 
0.000595354      10.1512      96.7890 
0.000608984      6.49124      106.928 
0.000125054      1.84981      98.3929 
0.000341744      11.3448      110.592 
0.000535561      9.87952      96.8013 
0.000354005      9.58067      115.602 
0.000430922      9.31320      106.275 
0.00117472      9.85814      109.372 
0.000381318      3.24236      112.294 
0.000439471      11.1699      109.944 
0.000554393      2.41812      101.449 
0.00102341      9.19871      98.8172 
0.000150785      5.48352      108.831 
0.000256133     0.408044      126.027 
0.000514544      9.02342      107.411 
1.98648e-05      6.93474      103.255 
0.000505343      4.86675      108.323 
0.000259751      2.13084      88.3865 
0.000243529      1.81593      97.5946 
7.40404e-05      6.96394      103.198 
0.000193277      2.25000      90.0000 
0.000251268     0.967471      82.8750 
0.000487413      2.60500      141.546 
0.000344718      9.91735      115.247 
0.000498844      5.11806      105.992 
0.000393137     0.891964      109.654 
0.000380751      2.04088      91.6847 
6.72383e-05      2.70416      107.430 
0.000485669      9.59367      115.764 
0.000320248      5.58814      109.116 
0.000116916     0.268328      63.4349 
0.000154832      8.76082      103.465 
0.000219000      6.99315      103.142 
1.66686e-05      8.86072      100.929 
0.000280260      8.56725      107.737 
0.000130088      2.40075      88.5679 
0.000406166      11.3834      110.680 
0.000139996      8.83310      109.235 
0.000122969      2.28020      89.2462 
0.000197980      5.60109      101.430 
0.000454561      9.93018      115.404 
0.000313965      3.20326      112.001 
0.000162300     0.283019      57.9946 
5.44302e-05     0.582495      101.889 
0.000124132     0.971648      81.1193 
0.000252763      2.28079      88.4926 
0.000186302      8.82326      109.051 
7.04941e-05      9.88312      96.9740 
7.89649e-05      2.26614      96.8428 
0.000143855      10.1741      96.4335 
9.33018e-05      2.84763      110.344 
1.39727e-05      8.88005      102.487 
0.000142294      3.32824      117.951 
0.000129284      5.26575      101.502 
0.000206850      9.57978      116.003 
0.000154037      9.95394      97.4463 
0.000101604      6.51891      101.413 
6.38929e-05      6.83585      99.0903 
0.000101837     0.108167     -123.690 
7.52949e-05      9.58203      115.201 
7.54253e-05      4.15486      104.638 
1.29769e-05      8.72402      104.132 
7.45972e-05      1.00130      81.3844 
4.95191e-05      5.55000      108.925 
6.24694e-05      8.70233      104.372 
