! Center RA: 12 21 31.69052,  Dec: +28 13 58.50022 (2000.0)
! Established model.
! Flux (Jy) Radius (mas)  Theta (deg)  Major FWHM (mas)  Axial ratio   Phi (deg) T \
! Freq (Hz)     SpecIndex
 0.0639382      0.00000      0.00000 
 0.0162863    0.0300155     -90.0000 
0.00762856    0.0424483     -45.0000 
0.00182837    0.0671167      116.565 
0.00749196    0.0949173      108.435 
0.00343791    0.0671167     -63.4349 
0.000753267     0.123757      104.036 
0.00568889     0.120062      90.0000 
0.00224272    0.0848966     -45.0000 
0.000528636     0.150077      90.0000 
0.00407206     0.212241      98.1301 
0.00149234    0.0848966      135.000 
0.000451688     0.180093      90.0000 
0.000151786    0.0424483      135.000 
0.000445544    0.0300155      180.000 
0.00284093     0.241993      97.1250 
0.00170358     0.247514      104.036 
0.00324068     0.108222     -33.6901 
0.00147370    0.0949173      161.565 
0.00339954     0.276729      102.529 
0.00238247     0.123757      75.9638 
0.00201395     0.123757      165.964 
0.000307548     0.134233     -26.5651 
0.00166649     0.150077     -36.8699 
0.000211806     0.161638     -21.8014 
0.000104920     0.284752      108.435 
0.000120093     0.313371      106.699 
0.000203153     0.153050      168.690 
0.00119315    0.0949173      71.5651 
0.000269362     0.408255      107.103 
0.00115792     0.418067      111.038 
0.000666064     0.134233      63.4349 
0.000190406    0.0671167     -153.435 
0.000736752     0.108222      56.3099 
0.000910614    0.0600310     -90.0000 
0.00111929     0.446212      109.654 
0.000111466     0.210108      90.0000 
0.000429860     0.108222     -56.3099 
0.000198097    0.0900464      180.000 
5.82671e-05     0.189835      71.5651 
0.000550273     0.553458      102.529 
0.000462591     0.127345      45.0000 
0.000296797     0.127345     -45.0000 
0.000208290     0.201350      63.4349 
0.000445474     0.457182      113.199 
0.000323667     0.120062      180.000 
0.000682609      3.55614      115.484 
0.000132787     0.582795      101.889 
0.000207996     0.577359      98.9726 
0.000504393      3.53169      99.7865 
0.000142838     0.677180      102.804 
0.000151467     0.182577     -9.46232 
0.000118281     0.258203      54.4623 
0.000408439      8.57398      111.988 
0.000773615      3.83338      112.549 
5.66988e-05     0.189835     -18.4349 
0.000120060     0.256452      110.556 
7.47564e-05     0.713460      104.621 
0.000914423     0.484915      111.801 
0.000143301     0.792431      114.624 
0.000605787      2.00852      76.1662 
0.000532567      10.2934      113.351 
0.000409026     0.276729      49.3987 
0.000966976      1.17139      92.9376 
5.17587e-05      1.23135      87.2056 
0.000306956      2.36335      118.836 
0.000369447      4.79682      105.599 
0.000259971     0.228591      113.199 
0.000337867      13.5055      120.723 
0.000204264      1.79446      110.564 
0.000191617     0.212241     -8.13010 
0.000159423      2.71103      114.863 
0.000456494      4.42377      112.742 
7.97261e-05      1.76479      121.791 
0.000176753     0.805400      116.565 
0.000169054     0.297138      45.0000 
0.000412316      4.84164      132.488 
0.000168279     0.900215      88.0893 
0.000146562     0.706480      102.265 
0.000664243      13.4173      115.992 
0.000414981      11.1009      127.643 
0.000333319      4.82142      132.225 
2.96418e-05     0.134233      153.435 
0.000199426      1.78078      122.612 
0.000631130      5.74903      111.750 
0.000482996      2.27831      80.9038 
0.000237860     0.361434      41.6335 
0.000157896      6.46838      115.257 
0.000627235      11.4313      117.169 
0.000338797      3.18690      112.701 
0.000651751      15.2431      123.440 
9.99923e-05      1.26561      84.5564 
0.000640395      9.31804      127.017 
0.000106565      1.17331      94.4015 
6.26982e-05     0.671167      100.305 
0.000512926      10.3322      113.439 
0.000119859      8.60182      111.913 
6.27600e-05      8.85909      118.299 
3.90663e-05      4.78884      105.254 
0.000348851      8.84490      118.128 
0.000199714      13.5467      120.767 
0.000207430     0.553458      139.399 
0.000256548      8.88553      118.208 
4.87777e-05    0.0949173     -71.5651 
0.000158786      8.80638      105.408 
0.000227326      4.81004      104.815 
1.25285e-05     0.150077      143.130 
4.76871e-05     0.495028      75.9638 
8.32825e-05      1.82619      137.665 
0.000356189      10.8602      127.030 
0.000170774      10.9491      128.659 
6.80321e-05      10.7207      115.706 
0.000176630      1.75557      123.140 
2.30566e-05     0.901714      86.1828 
1.15735e-05     0.474586      71.5651 
0.000123374     0.161638      158.199 
0.000140028      9.00829      103.483 
0.000372018      1.84849      138.291 
0.000173895      7.30102      117.935 
0.000131174      1.76639      110.906 
0.000172700      2.75092      115.167 
5.01668e-05      6.49553      115.144 
0.000341124      10.6453      109.254 
0.000330050      7.84203      106.213 
0.000126564    0.0848966     -135.000 
7.33574e-05     0.819263      118.443 
0.000162394     0.524198      76.7595 
0.000255227      9.22139      108.789 
4.10507e-05     0.874348      84.0888 
0.000139963      3.40914      114.986 
0.000178963      7.60742      115.961 
0.000140383      10.7608      115.781 
0.000209782      2.37798      119.469 
0.000190055      3.12700      118.041 
0.000149570      1.44281      93.5782 
0.000209766      8.03366      104.713 
0.000236558      4.80245      104.468 
9.45099e-05     0.700718      99.8658 
8.11831e-05     0.845111      117.498 
4.36835e-05     0.877947      82.1400 
0.000154854      7.41947      101.901 
0.000194961      2.24868      80.7829 
0.000167095      13.4739      122.452 
0.000153149      3.75327      124.583 
4.28377e-05      4.39520      100.615 
6.29560e-05      11.6398      114.518 
0.000165411      11.9907      123.056 
8.73236e-05      2.77311      95.5903 
0.000147821      8.87139      118.037 
2.44292e-05     0.108222     -146.310 
4.14208e-05      13.2858      121.896 
0.000123697      8.12816      112.116 
9.92741e-05      9.39254      107.856 
4.67447e-05      8.59067      111.727 
8.41398e-05      9.03748      103.439 
0.000113746     0.859382      119.273 
8.27568e-06      3.17543      112.201 
0.000181395      1.87100      138.903 
9.07133e-05      11.0693      111.628 
8.31696e-05      1.44124      92.3872 
4.60889e-05      13.4902      120.613 
5.26263e-05      2.01590      75.3379 
0.000323141      10.6071      109.154 
7.56302e-05      4.36023      100.300 
3.72949e-05      3.52907      115.693 
6.77498e-05      7.62061      116.164 
7.51122e-05      11.4176      117.035 
8.13777e-05      10.7739      115.924 
7.41698e-05      9.24981      108.729 
4.48954e-05      8.49755      110.674 
2.95474e-05     0.339586      45.0000 
0.000102445      9.29409      127.128 
5.18720e-05      13.2700      121.786 
6.60147e-05      11.1430      127.671 
5.15210e-05     0.882552      80.2093 
7.30691e-05      12.2319      122.987 
7.64518e-06      3.40535      104.275 
1.49680e-05      7.64993      118.076 
1.48442e-05      7.31513      118.142 
4.35852e-05      3.30688      86.3572 
1.44587e-05      8.76949      105.271 
2.90048e-05      3.44191      104.636 
2.86504e-05      7.71702      118.063 
3.56228e-05      3.91566      120.890 
2.81453e-05      4.86381      132.249 
1.40972e-05      2.33711      119.190 
2.79779e-05      13.3215      120.144 
7.10162e-06      13.4325      122.413 
2.10246e-05      5.73798      111.472 
1.40802e-05      11.4580      117.100 
1.41054e-05      3.77802      124.324 
1.38431e-05      1.32032      68.6702 
0.000757252      9.58850      176.411 
0.000745213      11.4717     -66.2502 
0.000347994      18.4352      54.1367 
0.000830053      11.1918     -137.715 
0.000350977      15.5296     -129.748 
-0.000471911      4.42851      127.565 
0.000471703      6.36227      157.549 
0.000381020      14.2409      75.2308 
-0.000222963      3.96957      47.1449 
-0.000346629      9.27693      36.0533 
0.000262646      11.8920     -47.6597 
0.000371559      18.4595      54.1913 
-0.000294770      14.3959      116.353 
-0.000456607      13.3203     -78.4375 
0.000253413      11.0096     -13.3912 
-0.000308856      4.52487      151.059 
-0.000288916      12.4951     -7.44980 
-0.000252481      16.3438      57.2147 
0.000207884      9.43882      57.7237 
0.000285769      7.03838      52.4459 
-0.000286022      4.77374     -135.764 
0.000328064      16.1115     -158.595 
-0.000246676      15.6451      115.680 
0.000283545      13.4324     -98.3483 
-0.000205244      10.2644      178.324 
0.000205002      19.9605     -137.558 
0.000164155      14.0667      39.4608 
-0.000282186      15.5022     -49.0019 
-0.000122977      8.21567      132.779 
-0.000162392      4.20633      20.8922 
0.000162970      12.0363     -69.5777 
0.000238218      15.9629     -145.025 
0.000159434      16.0898     -71.9690 
-0.000236297      16.1222      160.319 
0.000157247      9.47943     -55.0544 
-8.11920e-05      14.8815     -54.9332 
-0.000118743      5.17286      127.935 
-0.000195129      11.3280     -19.0087 
-0.000157275      4.58856      96.3847 
-0.000154994      9.97538     -38.2829 
-4.12093e-05      9.76260     -126.376 
0.000233808      12.2084      156.079 
0.000156653      11.7478      83.4016 
0.000231888      19.2671      46.3871 
0.000154509      18.4798     -40.1279 
0.000153500      15.8343     -75.0688 
-7.95179e-05      16.6760     -58.3111 
0.000154505      7.24205      6.18022 
-0.000116073      9.75093     0.881879 
-0.000153580      9.78043     -126.517 
0.000115613      16.4276      59.1260 
-7.74348e-05      15.8017      16.8869 
0.000114660      8.06365      156.773 
0.000527565      14.5350      19.0336 
0.000153027      14.3340      132.369 
0.000115116      5.41611      175.550 
0.000114883      12.4252     -128.532 
0.000152460      1.50482      94.5762 
0.000190315      17.2801      138.590 
0.000115208      2.86491      46.2735 
0.000114054      5.93140     -128.838 
0.000113849      18.9065      37.1965 
-0.000105346      15.9952     -18.3678 
-3.91719e-05      10.1436      88.4739 
-3.87983e-05      13.9714     -64.9751 
-7.57359e-05      10.7181     -175.185 
0.000192104      18.0108      44.3923 
-7.46885e-05      16.8552      144.784 
-7.53676e-05      10.5640     -58.1163 
-0.000280703      19.3354      138.271 
-0.000117334      10.6793     -23.6849 
-3.80443e-05      15.2331      44.0440 
0.000141973      16.8255     -121.735 
7.45114e-05      16.3346     -45.4467 
-7.45608e-05      13.9442     -64.9229 
-7.43050e-05      15.9763     -18.5039 
4.88575e-05      19.5515     -47.1759 
-7.35015e-05      6.30909     -108.006 
-3.72917e-05      14.1387      149.245 
-3.71806e-05      16.6918     -58.2234 
-3.71451e-05      15.5794     -148.545 
3.71107e-05      18.9485      37.2139 
-3.70517e-05      14.5668      105.896 
3.68761e-05      5.65976      172.389 
-3.67924e-05      11.4609     -48.9263 
3.67686e-05      14.5011     -158.266 
-3.67573e-05      9.25268      36.1627 
3.67139e-05      15.7732      28.5158 
-3.65699e-05      17.5226     -44.5853 
-9.22795e-05      12.5194      66.2589 
-3.62076e-05      14.5586      105.783 
-3.61272e-05      8.94024      65.4140 
3.61319e-05      15.7490     -167.233 
-3.60499e-05      15.6721      115.633 
0.000532835      14.3101     -93.7251 
-0.000309298      11.6173     -67.2096 
0.000477319      18.9964      37.1044 
-0.000180895      11.5839      1.48478 
0.000277175      17.4138      142.420 
-0.000172991      13.6631      155.066 
0.000140265      8.18800     -107.703 
0.000171868     0.324667     -123.690 
-0.000162142      19.0285      135.064 
0.000260473      14.5066      19.0723 
-0.000189493      5.29479     -11.4357 
-0.000201161      12.3300      131.250 
-0.000254328      6.23367     -21.7476 
-0.000167017      15.7761      159.636 
0.000158489      14.9338      176.777 
-0.000261231      11.5803      179.554 
0.000412045      7.31512      67.3254 
0.000600507      13.0925      144.890 
-6.33786e-05      9.63195     -136.010 
0.000236736      14.8879     -178.151 
-0.000406254      11.6125     -178.815 
6.58557e-05      11.6225     -52.6581 
0.000377707      15.3297      3.58946 
8.82191e-05      8.19717     -107.903 
6.48349e-05      9.88866     -142.644 
-0.000376174      16.3554     -116.001 
-9.32450e-05      13.1349     -5.24125 
-0.000372357      16.4667      146.368 
0.000348119      9.97531     -13.7425 
0.000118327      9.94007     -2.59608 
-6.17664e-05      7.00337      83.6083 
-6.27855e-05      15.1378      102.825 
-6.13173e-05      11.6566     -67.1307 
-3.18314e-05      9.75139     -125.987 
-0.000310561      14.5956     -15.8641 
6.21882e-05      10.4798     -152.554 
-5.79418e-05      16.4523      36.4722 
8.55027e-05      14.4096     -26.1928 
-0.000210067      11.5241      110.415 
3.13078e-05      7.94084      4.11841 
0.000174296      13.4043     -83.5748 
-0.000266606      12.2792     -152.184 
-0.000117492      18.3765     -46.4560 
0.000202551      6.21758     -38.1382 
-0.000189164      4.02373     -20.0571 
-0.000112827      11.4616     -61.8931 
-0.000111110      9.97371      24.7140 
8.55262e-05      11.6044     -52.7759 
0.000112128      15.6329     -169.272 
0.000827633      19.1879      52.8787 
-0.000101521      11.6540      92.8049 
0.000137363      14.3211     -13.0765 
0.000154294      9.43764     -55.0994 
0.000126563      18.7644      141.426 
-8.31816e-05      18.2034      130.990 
-0.000392577      14.6842     -30.4425 
0.000173506      16.6608      141.066 
0.000392082      12.8968     -115.193 
-0.000108076      14.1945     -24.0732 
-0.000299521      16.8692      25.1527 
0.000159943      7.91090      4.13402 
-7.95341e-05      16.3660      38.1515 
5.70190e-05      12.1904     -122.946 
2.93331e-05      9.89439     -142.888 
-8.08052e-05      11.3905      131.584 
0.000162592      15.0139     -163.158 
0.000204197      10.5065     -152.630 
0.000202983      9.65166     -12.5689 
0.000100023      14.9038      176.770 
0.000101494      7.51342      43.0574 
-0.000200076      15.0953      102.628 
-2.87718e-05      13.6359      155.013 
-0.000105399      10.7223     -36.5828 
-0.000168286      17.1766     -34.8280 
-7.80192e-05      15.7480      159.598 
8.08355e-05      8.38954      166.558 
-7.55514e-05      15.5538     -148.488 
-2.82743e-05      16.3896      38.0867 
0.000106362      9.45209      88.9083 
0.000141247      14.2801     -93.7330 
0.000124539      15.1626     -57.4425 
-5.39377e-05      15.5414     -171.229 
2.79371e-05      12.2755      156.064 
-8.80983e-05      12.3075      131.342 
-0.000217199      10.8696     -38.3874 
0.000145542      6.12655      171.555 
0.000122839      15.4570      7.36066 
7.23909e-05      19.0506      141.650 
-2.75259e-05      13.1050     -5.25324 
-6.61253e-05      13.6221      154.847 
-5.21023e-05      17.6071     -128.704 
7.76417e-05      16.0713     -72.1725 
7.79768e-05      15.1788     -57.3470 
-0.000167375      17.4706      150.134 
2.67564e-05      20.8850      46.8636 
-9.67333e-05      18.0741      57.1287 
0.000117618      12.2480      156.007 
-7.58953e-05      18.3558     -46.5239 
-7.48920e-05      5.24667      117.588 
0.000179444      8.25418      88.1245 
7.16869e-05      6.15624      171.596 
7.42748e-05      6.32374      159.161 
-4.99883e-05      18.4909      41.4497 
-0.000107749      15.3476      21.8014 
2.59913e-05      8.39657      166.359 
-0.000177667      17.7765     -134.726 
4.88373e-05      11.8385     -14.5295 
0.000238846      10.2669     -79.0498 
2.56785e-05      15.9744      28.4912 
-2.56341e-05      9.96119      24.5572 
0.000409800      15.1012      65.2165 
2.56241e-05      17.2009     -138.890 
-8.38072e-05      12.9868      130.127 
4.96832e-05      14.9022      176.885 
-9.06804e-05      11.5827      134.370 
-0.000191348      16.4442     -136.257 
-2.51475e-05      17.6094      34.8000 
-0.000127054      15.4727     -130.360 
6.79460e-05      14.2503     -19.0456 
-2.50068e-05      9.07203     -172.782 
-0.000280476      16.5871      115.267 
-2.48380e-05      18.0525     -38.1837 
6.78898e-05      14.5716      141.855 
8.35897e-05      14.7556      155.623 
4.73335e-05      17.2066      33.5508 
-0.000211548      3.39686      162.530 
4.75626e-05      9.91009     -2.60394 
-4.75308e-05      13.6903      155.119 
-0.000275248      19.3154      138.337 
-0.000158991      15.5460     -171.120 
8.77467e-05      15.4101     -56.8361 
0.000180266      20.4982     -43.5761 
0.000421133      12.9140      168.612 
-4.59372e-05      20.1455      41.6192 
0.000164070      8.36740      166.310 
-2.41654e-05      11.4881     -61.9636 
0.000223186      10.9497      19.5252 
-2.41315e-05      13.1475      55.6941 
0.000287086      19.3554      139.968 
0.000192469      16.0336     -72.2417 
-0.000152236      15.2883      15.9450 
-9.05220e-05      17.7324      137.674 
-9.06865e-05      16.3842     -62.4022 
-2.37308e-05      16.4495     -115.957 
4.04327e-05      17.2039     -139.031 
0.000249878      13.9611      6.91188 
-0.000187184      13.7925     -26.6208 
4.56905e-05      14.5024      36.4193 
0.000205724      15.3521     -56.9624 
4.53899e-05      5.19185     -178.344 
-0.000254453      15.7983     -24.8122 
-4.61481e-05      18.1960     -49.6130 
-2.34910e-05      17.6259     -128.780 
0.000102271      14.9852     -163.125 
-0.000327137      17.2184     -34.8529 
-0.000218107      12.5469      66.3141 
0.000142925      11.6283     -52.8654 
-0.000303163      16.3285     -116.047 
-0.000189029      20.1643      133.071 
0.000163006      17.6146      56.0398 
-2.32160e-05      16.4765      36.4101 
4.41966e-05      9.48083      89.0930 
-2.29908e-05      9.38801      175.599 
-8.27895e-05      11.4475     -62.0256 
-8.28884e-05      14.1295     -17.1647 
-6.62853e-05      12.1361     -144.660 
-0.000105973      13.1723      55.7677 
0.000323724      19.2296      140.698 
6.34584e-05      14.4846      36.3237 
2.27788e-05      9.16447     -95.6340 
-0.000237054      11.8802      179.855 
-0.000294859      9.84353      1.57258 
0.000110358      17.4550     -138.833 
-0.000135944      15.4530      159.666 
0.000170434      11.1493     -148.533 
2.25963e-05      14.2270     -24.9444 
6.09882e-05      13.8086      52.0608 
0.000322146      18.3826      125.636 
2.23459e-05      9.62237     -12.6078 
8.65888e-05      16.4364      25.8631 
8.12628e-05      2.36271     -20.0406 
-0.000116625      17.0403      28.9556 
0.000341715      15.8892     -29.2767 
-6.19050e-05      12.6357     -80.1556 
4.27726e-05      17.2265     -139.096 
-2.19619e-05      15.0616     -171.869 
-4.06792e-05      15.7816     -13.7449 
-0.000152690      18.1537     -49.6237 
-4.26661e-05      18.5135      41.3882 
-4.25356e-05      16.4765     -115.912 
3.98683e-05      19.9827     -137.616 
0.000153499      9.68752     -12.7035 
-2.17450e-05      13.4824      160.637 
0.000113310      6.35180      159.257 
-2.16332e-05      15.1564      35.1693 
-5.46471e-05      13.5949      154.793 
8.28086e-05      19.4424      130.744 
2.15436e-05      10.2612     -79.2143 
-2.14767e-05      7.37077      75.6228 
-4.22011e-05      2.10679     -107.409 
-5.64006e-05      4.03412     -20.4575 
9.82862e-05      13.5088      101.659 
-6.20867e-05      9.41793      175.613 
-6.07398e-05      16.7444     -55.1441 
-0.000345099      10.5666      155.690 
-4.12889e-05      15.1861     -20.2240 
-4.15958e-05      14.7668     -52.5944 
-0.000243452      15.1311      102.714 
-4.10232e-05      7.32011     -133.841 
-0.000151988      16.4247     -62.3579 
4.08024e-05      7.83785      47.9492 
-0.000344616      17.4446      150.085 
4.03561e-05      17.7301     -59.2691 
3.60967e-05      13.8317      52.1354 
4.07647e-05      18.0206      52.1003 
2.07438e-05      9.51878     -33.6876 
-0.000130752      15.0319     -171.853 
-3.92196e-05      9.68989     -78.9320 
0.000437807      18.7457      141.498 
0.000220241      16.4094      25.9089 
-0.000279531      13.4924      160.517 
-0.000132269      12.1117     -144.578 
0.000126547      17.0920     -141.198 
0.000102261      15.8177     -116.468 
-8.84719e-05      16.4115     -115.440 
0.000167065      14.5454      102.145 
-0.000113146      15.9757      134.010 
-0.000125824      14.6775     -146.507 
3.95323e-05      17.1971      36.1309 
0.000168299      11.0861      16.6699 
5.87420e-05      9.65824     -12.7427 
3.72364e-05      13.0007      9.83039 
9.13863e-05      19.0803      46.8470 
-8.53245e-05      9.06193     -155.557 
-0.000124382      10.8510     -38.2632 
5.54249e-05      9.53546     -33.8376 
-3.88042e-05      16.0632     -121.403 
-0.000111562      14.7485     -52.6870 
-1.98260e-05      11.3788     -115.620 
-0.000270657      2.11596     -108.184 
0.000132421      12.2206      155.950 
-0.000124037      7.41342      129.748 
-5.39380e-05      17.7547      137.739 
-9.23813e-05      15.3672     -14.0077 
-3.84026e-05      12.2967      168.746 
0.000655342      16.0245     -72.3439 
0.000119616      7.97269     -65.0727 
3.80889e-05      14.0471      153.762 
9.01473e-05      14.2682     -104.242 
4.73148e-05      16.3153      64.0478 
0.000123831      19.4197      130.802 
0.000301799      18.0391      52.0251 
0.000141851      4.29523     -28.3604 
-5.28586e-05      19.2310     -42.9777 
8.90714e-05      13.1856      101.949 
0.000168703      12.5902      77.0571 
-3.73602e-05      16.6671      130.256 
-6.73691e-05      20.1679      41.5625 
5.34890e-05      9.41304     -54.9949 
1.92923e-05      9.46358      57.8184 
-0.000193484      12.9083     -25.6117 
0.000130692      7.01461      52.2965 
-0.000220180      15.2594      15.9760 
-0.000290201      18.5222      140.586 
5.57976e-05      9.03129     -78.5024 
0.000280593      10.2163     -8.27294 
-5.29201e-05      5.54206     -101.552 
1.90424e-05      9.48040      89.2744 
-7.24503e-05      14.0736     -101.309 
-5.32273e-05      4.73561     -106.942 
-1.89482e-05      20.4322      43.8691 
-3.68964e-05      10.0221      80.0010 
-0.000158106      14.0497      25.4168 
3.65747e-05      18.5185     -40.2699 
-5.20679e-05      11.0424      154.060 
0.000201208      15.3937     -56.9296 
-6.86734e-05      17.3758     -53.0697 
-0.000121232      20.5379     -47.7825 
-9.24541e-05      11.9102      179.856 
-0.000226417      18.9062     -36.7416 
0.000146077      13.2566      131.882 
-6.83719e-05      10.5799     -57.9782 
-1.85927e-05      10.6164      7.30535 
9.95081e-05      11.0269     -95.3063 
-6.30840e-05      6.47820      95.3170 
-1.85487e-05      11.6747      94.4199 
3.27331e-05      13.4077     -83.4473 
-6.92780e-05      17.1972      49.6704 
-0.000122028      15.2444      11.4648 
-1.84121e-05      10.0010      24.6421 
5.11971e-05      16.6140      128.402 
-6.88808e-05      17.1520     -34.8852 
-5.19734e-05      11.0417     -116.636 
3.57612e-05      12.3705      148.082 
-1.82202e-05      11.5833     -44.1601 
-0.000218504      15.7964     -157.087 
-1.82037e-05      11.6057     -67.3462 
-0.000108631      14.5750     -16.0098 
-8.26536e-05      7.59110     -79.7564 
6.67742e-05      7.69919      139.106 
-5.13148e-05      11.6252      134.372 
1.80267e-05      11.9077     -50.2129 
-0.000148818      11.8086      176.794 
1.79648e-05      13.9430     -141.551 
9.66782e-05      9.72636     -56.0647 
-0.000393874      16.5743      115.173 
9.82092e-05      14.4574      30.5568 
-1.78271e-05      15.5440     -148.336 
5.01948e-05      16.6375      141.001 
-0.000115735      15.2107      44.6003 
0.000189506      17.7454     -59.1858 
0.000117741      15.7067      28.5229 
-0.000183988      19.2583     -41.3367 
-0.000294563      13.6673     -81.0326 
0.000201673      9.06672     -78.3543 
-8.10891e-05      15.4292     -79.6957 
-0.000146292      17.9428     -40.3201 
0.000269244      15.4609      7.47097 
9.73190e-05      13.5325     -169.139 
-5.82306e-05      11.4740     -62.0959 
6.40388e-05      10.2851     -82.6266 
1.73908e-05      14.8889     -178.036 
-1.73692e-05      9.22636      129.591 
-0.000161019      15.9965      134.088 
-4.94498e-05      9.99778      79.8017 
-8.09121e-05      14.4937      82.5063 
6.55053e-05      16.6033      121.479 
0.000253322      18.3546      48.0474 
9.45933e-05      13.0734     -72.2306 
-8.18854e-05      16.8669     -126.319 
1.71874e-05      13.2142      40.4884 
9.36674e-05      18.4956     -40.3300 
-0.000384936      20.5601     -47.8387 
-3.35198e-05      11.5825     -178.812 
-4.84709e-05      16.6900      130.189 
0.000227771      19.4393      130.869 
-1.69588e-05      11.6525      92.6575 
1.69157e-05      14.3827     -26.2455 
1.68845e-05      11.9500     -50.1944 
4.82259e-05      16.7378      66.3299 
-3.30756e-05      9.26862      129.616 
-1.68165e-05      19.5602      135.745 
-9.18517e-05      12.5703      167.457 
-6.35824e-05      15.8149      71.5298 
-7.68276e-05      11.4335     -62.1584 
-0.000300109      14.0768      25.3643 
0.000302196      15.8219     -52.7828 
0.000294944      15.2697      179.775 
-0.000187246      8.09990      90.4246 
1.65294e-05      18.5093      124.901 
3.23913e-05      7.34283      67.4157 
-0.000249576      16.6571     -126.209 
-0.000272723      15.6113     -20.9422 
3.23448e-05      15.6182     -16.1719 
-4.66220e-05      15.3963     -13.9807 
-6.31158e-05      14.8088     -52.5727 
-0.000157082      12.2661     -149.420 
-6.21800e-05      4.40476      127.803 
0.000114618      9.25527      75.7407 
0.000178485      16.3824      25.9547 
4.28091e-05      13.9201     -141.476 
-0.000105040      16.0732     -121.256 
4.70012e-05      12.3292      148.127 
-1.62860e-05      10.2451      5.37528 
1.63122e-05      17.8526     -42.8896 
-1.62400e-05      11.4329      131.597 
-0.000204244      15.2738      11.4424 
-7.50962e-05      19.6569      48.4030 
1.61467e-05      17.1026     -130.732 
-0.000140280      12.5073      66.3848 
-3.14772e-05      15.3943     -79.7856 
-3.07559e-05      15.4925     -111.946 
6.65028e-05      19.0598      46.9128 
3.04802e-05      7.18896     -123.423 
4.73286e-05      17.9225      50.5010 
-0.000289831      19.0319     -136.086 
-3.01930e-05      17.2767     -35.8157 
-4.60926e-05      10.1882      5.57496 
-0.000103615      15.6592      146.249 
-0.000117136      13.3319     -48.9230 
-3.10690e-05      12.4342     -2.76726 
2.89050e-05      14.2786     -19.0063 
-0.000346087      19.3778      138.263 
1.58195e-05      15.3578      3.47068 
0.000104520      15.7325      28.4720 
-3.10000e-05      18.5032      140.658 
1.57685e-05      20.0029     -137.553 
6.06811e-05      17.2589     -130.417 
4.20377e-05      19.3473     -44.6229 
1.57718e-05      17.2589     -139.583 
4.49729e-05      13.1794      101.821 
-3.05947e-05      17.2236      132.247 
-5.96040e-05      7.80172      88.8978 
-0.000202338      19.4201      138.256 
0.000244968      15.6977     -101.912 
7.24589e-05      14.1025      8.44182 
0.000140401      15.5894     -16.2026 
0.000129267      16.0355     -57.1428 
-1.55535e-05      15.1012      24.7835 
0.000101046      4.26884     -28.5518 
-0.000228604      20.0279     -44.0285 
3.06983e-05      17.9076      50.7103 
-1.54853e-05      19.4401      138.190 
-0.000136855      16.4940      142.985 
-1.54532e-05      15.3197      21.8431 
-1.54301e-05      18.0742     -45.5383 
-2.83702e-05      13.5390      160.721 
1.54338e-05      14.6817     -109.954 
-1.53394e-05      13.3263     -78.3111 
-0.000126484      14.3147     -139.164 
-9.98398e-05      15.2317      44.6807 
5.15098e-05      16.1670     -39.8066 
-7.23200e-05      14.9993      134.270 
-0.000110280      15.2795     -41.5777 
3.03808e-05      14.7580      110.094 
-0.000405104      17.3467      151.264 
2.94042e-05      15.7430      34.2051 
2.99668e-05      7.33135      67.6323 
7.22192e-05      7.88097      4.14975 
0.000115107      12.9081      168.743 
-8.45182e-05      14.9501      78.8931 
-5.87713e-05      16.4897     -116.005 
4.34486e-05      17.8322     -42.8190 
-0.000333375      18.8414     -136.162 
-0.000126468      19.6787     -137.162 
1.52360e-05      13.7048     -123.030 
-5.04099e-05      9.24552      129.735 
-0.000140588      17.3505      40.1600 
-7.37663e-05      20.1438      133.009 
3.00984e-05      12.5159     -45.0000 
-0.000149707      17.1557     -52.3888 
1.51503e-05      13.3772      115.933 
8.34902e-05      14.4861      3.44193 
-8.42539e-05      14.3137     -128.192 
0.000111649      13.5030     -169.115 
-0.000183897      16.8492     -126.237 
1.50856e-05      18.0537      44.2590 
-4.41648e-05      11.6048     -44.0569 
1.50696e-05      12.9423      147.783 
0.000319918      17.8886      50.7847 
-0.000134329      16.1586      146.280 
0.000277266      18.5511      124.924 
2.92894e-05      15.3171     -15.9142 
8.57693e-05      17.4353     -138.907 
1.50143e-05      13.7308      176.870 
-4.39652e-05      19.6567     -137.102 
4.32308e-05      15.1741     -26.4117 
-0.000112041      14.6389      117.457 
-8.53041e-05      12.7057     -4.87520 
-1.48730e-05      12.2403     -149.349 
-8.04534e-05      11.3699     -90.0000 
-1.48361e-05      15.3127     -47.7786 
-5.69338e-05      8.50334     -48.7208 
-3.98968e-05      13.4227     -65.1542 
7.03801e-05      12.9169      147.712 
2.90330e-05      18.3593      124.885 
-0.000241155      15.0535      63.7428 
1.47390e-05      18.3345      48.1172 
-0.000151301      18.8764      130.424 
-9.56439e-05      5.73373     -110.524 
-8.43887e-05      15.2306      16.0070 
1.46512e-05      17.6095      45.9651 
-1.46528e-05      17.0549      29.0438 
1.46369e-05      13.6709     -123.272 
-0.000318110      20.5334     -47.5474 
-1.46375e-05      19.2515     -43.0430 
-2.72955e-05      13.2849     -133.354 
0.000161533      14.3922      71.1494 
1.45818e-05      12.8841     -115.073 
-0.000158676      20.8540     -44.3585 
-2.85830e-05      18.3163      35.6689 
5.53899e-05      20.4776     -43.5152 
6.93708e-05      17.7974     -36.1558 
0.000239159      14.7195      110.025 
2.86378e-05      12.5371     -44.9030 
-0.000343469      21.0017      135.347 
-0.000121449      16.3147     -116.188 
-0.000121753      14.7906     -52.6650 
0.000111477      12.2065     -84.5004 
-1.44903e-05      18.4800      140.599 
1.44446e-05      17.1342     -141.183 
0.000163854      13.3371      115.873 
-0.000418376      17.8508      138.406 
0.000199821      11.6703     -52.8369 
-0.000121242      16.9196      60.1171 
-5.56242e-05      13.4641      160.474 
-0.000215327      17.4186      150.035 
-4.19551e-05      17.1709     -136.911 
1.43691e-05      13.6458     -123.341 
-2.72016e-05      14.4976      82.3887 
9.32341e-05      17.0799     -130.797 
-4.17208e-05      13.9337      22.5337 
0.000315542      19.2529      140.754 
0.000121737      14.2814      12.3727 
8.01367e-05      15.8251     -17.8860 
-8.06880e-05      14.9744     -141.016 
2.82099e-05      19.3324     -46.5712 
0.000404278      17.7043     -59.2195 
4.09025e-05      16.1802      122.275 
0.000132636      15.9301     -29.3181 
-2.78409e-05      12.4042     -2.77396 
4.12088e-05      12.3037      148.053 
9.38578e-05      19.3784      140.025 
7.94103e-05      18.3063     -147.039 
1.41033e-05      13.6624     -123.447 
-0.000119427      15.1246      102.603 
-6.62210e-05      5.38213      53.3841 
0.000173607      17.7425     -51.5218 
-2.71239e-05      9.84440      1.74721 
-1.40533e-05      9.12643     -133.138 
0.000181470      15.5761      79.7939 
-0.000134975      20.1219      133.067 
-6.68851e-05      13.2631     -133.443 
2.75289e-05      14.5746      37.3891 
4.10343e-05      16.1286     -158.733 
1.39796e-05      2.40126     -20.4680 
-1.39375e-05      11.6264     -43.9540 
5.97057e-05      6.98219     -124.850 
-1.39274e-05      11.5523      110.363 
0.000106435      13.6373     -123.516 
-1.39222e-05      4.75228     -135.512 
-9.23290e-05      16.5029     -116.099 
-0.000156495      19.7417     -48.3883 
2.71692e-05      14.2398     -104.271 
-0.000145243      19.0101      129.493 
-1.39095e-05      19.2515      43.0430 
-0.000427573      21.4046      44.8296 
-0.000181376      19.6949      43.2724 
0.000183619      15.1138      65.1132 
5.35722e-05      15.5056     -76.2341 
1.38333e-05      17.2818     -139.648 
1.38262e-05      15.3594      131.913 
-2.71929e-05      9.80287      129.537 
-2.70837e-05      16.3562     -115.766 
-2.71113e-05      16.0712      20.4302 
-7.97741e-05      20.1904      41.5060 
0.000142974      20.4558     -43.5731 
1.37577e-05      11.5023      98.7015 
5.34066e-05      18.4001      125.712 
4.03375e-05      14.1587      19.8178 
1.37333e-05      15.3134     -77.3244 
1.37265e-05      15.9865     -151.655 
-1.37579e-05      16.3693     -115.860 
2.70068e-05      18.4728     -40.3903 
0.000146528      13.0826     -72.1055 
0.000228408      13.8554      127.788 
-0.000116289      12.3926      88.7509 
-5.30830e-05      15.9395     -121.295 
-0.000155828      15.8081     -156.986 
-6.57541e-05      19.2295      43.1041 
-8.99221e-05      15.7927     -33.2974 
0.000184458      12.5583     -45.0000 
-0.000155034      18.2646     -44.8003 
8.79651e-05      9.23071      108.376 
0.000129721      12.1932      155.893 
-2.66118e-05      15.9041     -160.267 
5.27383e-05      12.5970      76.9240 
-0.000180832      20.6182      132.463 
-1.35253e-05      16.3703     -115.625 
-6.62577e-05      17.1075      27.2394 
2.36565e-05      10.2374     -79.0179 
9.19169e-05      12.8787      168.717 
1.35348e-05      15.3795      131.996 
3.97119e-05      19.9842      45.7302 
2.68096e-05      14.4438      101.380 
7.40863e-05      11.3317     -24.3943 
-0.000108298      11.6905     -43.8557 
3.94969e-05      15.7679      34.1438 
6.61604e-05      18.0478     -123.267 
-0.000102185      19.4625      138.249 
-6.48383e-05      13.4486      32.5205 
1.34414e-05      15.5522     -16.1273 
0.000128395      14.5747      102.120 
1.34420e-05      18.0322      44.3256 
2.62783e-05      19.2528     -38.1018 
8.50565e-05      9.24793      75.9209 
1.34076e-05      5.51575      135.882 
0.000127754      21.0734      46.6723 
0.000204037      15.3200     -77.2149 
9.03140e-05      15.4176      132.319 
-1.33226e-05      16.3824     -115.955 
5.57798e-05      14.4345     -6.56419 
0.000280938      15.6915     -101.805 
8.97359e-05      16.8794      127.562 
-2.61729e-05      16.8657      33.8329 
-2.34298e-05      12.6758     -4.88673 
-0.000191256      14.8889     -1.96399 
6.47170e-05      18.3979      40.8355 
-0.000254909      21.0873      45.5767 
-2.61780e-05      16.9847      38.1858 
-3.88150e-05      5.31784      141.641 
5.17479e-05      16.4226      26.0031 
2.61233e-05      14.1322      8.42396 
2.61499e-05      12.8921      147.643 
-5.15136e-05      17.5644     -119.017 
-0.000115156      17.3095     -34.7641 
-5.18026e-05      15.8103     -21.5994 
-3.92690e-05      19.6991     -137.098 
-2.59401e-05      16.7996     -152.565 
-1.31812e-05      16.4627     -116.051 
-1.31733e-05      18.2919      35.7237 
2.60211e-05      16.6263     -122.773 
-2.59454e-05      15.0623      118.556 
-7.63588e-05      17.7123      137.746 
-0.000249746      16.5934     -58.3786 
0.000203118      17.7555     -53.8653 
-3.87000e-05      19.2358     -41.3958 
2.60682e-05      18.2472     -56.4674 
-2.58243e-05      15.2224     -40.1231 
6.39721e-05      15.8446     -116.419 
-2.58394e-05      8.48357     -48.8732 
1.30708e-05      18.0987      51.3254 
-2.58245e-05      15.2017      16.0382 
-1.30463e-05      11.4195     -62.2916 
2.57958e-05      6.35087      157.799 
1.30291e-05      15.7420      23.8305 
5.83841e-05      13.2790      131.795 
-2.58288e-05      16.0430      20.4676 
-6.38539e-05      16.3432     -115.671 
8.91064e-05      18.0575      51.9500 
0.000139410      18.0227     -123.319 
-2.55867e-05      16.0577     -121.164 
7.61625e-05      14.2472     -104.388 
8.88371e-05      15.8619      165.544 
-3.81770e-05      12.5410      167.427 
0.000190237      15.3308     -103.926 
-1.29698e-05      15.6841      146.310 
-7.61017e-05      17.3276      40.2240 
-0.000189869      16.6015      115.129 
-1.29083e-05      17.7727     -33.5015 
1.29257e-05      12.2624      148.098 
1.29260e-05      19.3399     -39.8386 
1.28883e-05      17.8217     -36.0989 
-1.29049e-05      18.2575      137.265 
2.36041e-05      19.1228      46.8429 
-0.000164600      20.1014      133.005 
-0.000113917      14.5833     -16.1232 
8.86991e-05      13.7675     -78.6907 
1.28778e-05      14.4379      101.263 
2.54617e-05      15.2943     -57.0896 
0.000139248      18.2638     -56.3889 
-0.000114131      19.7211     -137.157 
5.08737e-05      16.3061      159.765 
1.28922e-05      19.0521     -44.1064 
-5.07859e-05      15.0196     -171.386 
-8.86195e-05      17.0946      27.3749 
0.000176879      15.8038     -52.8695 
0.000139066      17.8696      50.8592 
-3.76359e-05      5.72328     -110.243 
-1.28245e-05      19.0318      132.061 
-0.000101033      17.7977     -33.4482 
-9.44408e-05      14.4637     -141.822 
-1.28315e-05      21.1087      45.6337 
5.09314e-05      15.6159     -77.9120 
-0.000164352      14.2920     -139.085 
1.28136e-05      3.05121      120.096 
-4.83038e-05      15.3032      11.4201 
-3.81590e-05      20.2328      41.5134 
-1.27738e-05      13.9499      22.3726 
1.27877e-05      7.51298      60.0599 
-1.27875e-05      15.0202      134.352 
3.80169e-05      16.7842     -121.702 
3.81475e-05      15.3236     -103.817 
2.55017e-05      14.6857      144.395 
-5.06927e-05      18.9482     -36.7601 
-0.000201725      20.5216      48.0799 
7.58325e-05      15.2494      97.4614 
-0.000113624      15.6393     -20.9029 
1.27762e-05      8.13504     -106.494 
-6.32037e-05      16.9611      38.2485 
-3.79834e-05      17.5499     -118.931 
-0.000180477      11.4600     -62.2285 
1.27353e-05      12.8975     -131.701 
-2.52828e-05      17.0558     -120.670 
-4.91333e-05      17.9101      40.7882 
-1.27209e-05      16.3956     -116.049 
0.000113327      15.2405      179.774 
0.000150925      15.6096     -78.0197 
-1.27055e-05      12.9237     -96.5312 
-1.26843e-05      12.3307     -171.041 
-3.79067e-05      20.6385      132.525 
-6.29717e-05      19.0528     -136.021 
-5.04900e-05      19.0340      131.933 
3.79316e-05      15.5413      12.3734 
2.52218e-05      12.2878      148.172 
-1.26987e-05      18.2795      137.329 
-3.77757e-05      16.4652     -62.3138 
1.26538e-05      19.3168     -39.8956 
-1.26740e-05      13.7433      159.824 
-3.78325e-05      15.3976     -94.0214 
-1.26925e-05      15.4327     -14.0619 
-2.52936e-05      16.6394     -126.125 
-4.58298e-05      2.12552     -108.953 
-1.26796e-05      16.4587      36.3260 
-3.78044e-05      15.7824     -21.6395 
1.26587e-05      15.6674      168.625 
-2.52082e-05      20.2129      41.4497 
8.80042e-05      17.7612     -51.4460 
-3.77146e-05      15.0804      63.7932 
-6.29262e-05      16.6123     -147.687 
-5.03613e-05      16.7729     -152.518 
-1.26138e-05      18.2298      131.798 
-1.26288e-05      15.0216      118.510 
-1.26340e-05      19.7228     -137.280 
6.28781e-05      17.0572     -130.863 
-3.78047e-05      17.3930     -48.9166 
1.26159e-05      16.1642      122.185 
-2.51560e-05      15.1729      16.0696 
-1.26136e-05      15.7816     -62.1190 
3.77591e-05      14.6613      144.327 
-2.51931e-05      5.29433      141.439 
8.75476e-05      12.3283      112.009 
-6.27883e-05      18.9540     -48.3365 
-1.25808e-05      16.5777     -58.4669 
-1.25973e-05      16.6591     -112.780 
-0.000100560      20.8670      132.845 
2.29299e-05      19.1022      46.9086 
-5.02622e-05      20.2552      41.4571 
-6.28570e-05      18.9902     -36.7784 
5.02853e-05      15.8408      74.1743 
6.28222e-05      15.9850     -73.5370 
2.51757e-05      19.4363      130.994 
-5.02672e-05      15.7199      69.5598 
-1.26004e-05      15.9138     -121.352 
3.76282e-05      18.4420      125.733 
-2.50873e-05      15.2749      103.055 
7.54420e-05      15.5413      102.373 
-1.25893e-05      12.7223     -5.68336 
-0.000113117      20.5775     -134.527 
-2.51454e-05      19.0524      129.506 
1.25638e-05      19.0270     -127.375 
-8.79747e-05      21.0230      135.405 
-2.51076e-05      16.3417     -116.141 
-5.01447e-05      14.9809      118.464 
2.50951e-05      15.6351     -73.6168 
5.02127e-05      14.9055     -81.2025 
-2.50867e-05      16.4357     -116.097 
-3.77070e-05      18.0111      140.609 
3.35680e-05      12.6543      14.6955 
3.76561e-05      15.5706      12.3497 
-3.76250e-05      13.5453      100.463 
2.50985e-05      11.2920     -24.3185 
8.79009e-05      19.0326     -127.249 
7.53706e-05      14.2042      75.3170 
-3.76805e-05      16.8490      33.7481 
-1.25409e-05      18.2005      131.123 
-0.000115848      16.1371     -108.872 
-3.76961e-05      16.2965      21.0371 
-6.28466e-05      15.9145      113.086 
-4.37542e-05      16.0174      134.165 
-1.25459e-05      8.09973      90.2123 
-1.25089e-05      15.6714     -32.4116 
1.25322e-05      15.2957      8.68504 
-2.50850e-05      16.5600      143.027 
-3.76802e-05      19.7431     -137.216 
-1.25318e-05      18.8197     -136.099 
3.76963e-05      18.2888     -56.4410 
3.76301e-05      15.6500      101.612 
-5.03785e-05      15.8551      111.419 
-3.77684e-05      17.0425     -117.693 
-7.25116e-05      18.9630      137.629 
-2.51046e-05      12.6924     -5.69677 
-1.25550e-05      18.2498      131.868 
-3.77420e-05      20.2354      41.3934 
-1.25554e-05      19.0117      131.994 
-2.51679e-05      16.5563     -116.240 
2.52124e-05      14.4969      18.9602 
-2.51295e-05      15.3955     -93.9099 
-1.25393e-05      18.4380      36.6638 
-2.51156e-05      16.7868     -152.427 
1.25395e-05      15.4765     -76.2077 
-2.51325e-05      18.2202      131.195 
-2.51039e-05      16.3573     -115.531 
-1.25433e-05      16.6500     -116.657 
-1.25537e-05      13.0803      89.6056 
-2.51334e-05      19.1137      129.587 
-3.77157e-05      19.8009     -129.406 
-1.25860e-05      19.9336      48.4168 
2.51238e-05      15.2944     -103.844 
-2.51519e-05      15.8977      65.7069 
-1.25739e-05      15.6780      59.6561 
1.25477e-05      14.8735     -101.401 
-2.51502e-05      18.9187      130.435 
2.51453e-05      19.2118      52.9327 
-2.51688e-05      20.3674      41.1790 
1.25879e-05      16.0789     -29.3883 
-2.51400e-05      15.6006     -20.8393 
1.25679e-05      12.7409      95.1327 
-1.25494e-05      16.4409      36.2417 
1.25700e-05      14.9009     -81.3166 
1.25553e-05      15.4311      7.48546 
1.25969e-05      16.7999     -121.789 
1.25695e-05      15.8179     -76.1754 
-1.25763e-05      15.8661      111.520 
2.52113e-05      18.3054     -56.3627 
-1.26114e-05      16.0669     -112.159 
2.31847e-05      17.0376     -130.787 
-1.26286e-05      15.5719     -144.962 
-1.25950e-05      15.7298     -59.7666 
-1.26020e-05      17.3341     -34.7075 
-1.26180e-05      16.5360      142.964 
-1.25771e-05      16.8936      60.0663 
1.25528e-05      12.1658      155.835 
1.25728e-05      14.0818     -81.2986 
-1.26088e-05      15.0329     -93.7751 
1.26231e-05      17.6291     -54.7682 
-1.26020e-05      14.9667      118.363 
-7.38462e-05      18.9852      137.690 
-4.22214e-05      17.1721      147.920 
-0.000134538      17.1975      147.973 
0.000106055      18.9224     -44.8715 
0.000207933      21.3837      45.3412 
-0.000134236      15.3110      103.139 
-5.56322e-05      17.2255     -135.000 
2.72108e-05      18.9013     -44.8070 
-7.89126e-05      20.2587     -45.3001 
-0.000120015      20.6884      137.939 
-0.000120367      13.6886     -43.3141 
-6.34912e-05      18.2235     -142.357 
2.68443e-05      14.1514     -29.8794 
-0.000178830      18.4527     -39.5914 
-3.87489e-05      15.3949      6.37782 
5.05812e-05      19.0939     -44.2357 
-3.90478e-05      16.7103      156.289 
-2.62923e-05      10.0470      172.451 
-8.44382e-05      13.2837     -133.537 
-9.68370e-05      13.8047      68.4513 
1.33791e-05      18.9226     -44.7429 
-7.42021e-05      13.8268     -103.041 
-8.58202e-05      8.44122     -48.8927 
-2.58225e-05      17.2818      40.3525 
-2.58978e-05      13.1829      151.451 
6.12561e-05      12.1737     -84.6275 
-8.26276e-05      17.1914     -136.838 
-0.000127239      13.5780      72.6465 
7.08252e-05      15.4664      120.545 
3.71916e-05      20.7717     -133.888 
-7.20967e-05      10.6297     -43.9703 
-8.08322e-05      17.1831     -135.000 
3.67036e-05      12.0825     -150.061 
-3.61955e-05      15.8526     -149.652 
-5.87732e-05      17.2556      49.4425 
0.000123457      14.8508      166.327 
-9.07852e-05      10.5790      155.542 
0.000101603      19.0730     -44.1711 
-0.000103177      18.7080     -124.813 
-0.000136622      19.4547     -142.140 
6.73197e-05      11.4908      114.692 
-1.24409e-05      14.8441     -78.5765 
5.83871e-05      16.3136     -45.5218 
2.39531e-05      8.84625      44.8625 
-2.41364e-05      15.0865      24.9348 
4.64245e-05      14.3070     -18.9671 
1.23916e-05      14.8437      166.440 
4.65474e-05      7.57681      83.6372 
3.54459e-05      7.49805      60.2587 
-2.41323e-05      17.2680     -134.859 
2.33811e-05      11.0257      111.048 
-5.77668e-05      12.3920      88.8897 
2.34145e-05      16.7684     -121.615 
8.87391e-05      11.7806      117.282 
1.21719e-05      16.7380     -45.5086 
2.41366e-05      17.4429     -148.360 
-5.51601e-05      17.2500      43.8032 
-3.39078e-05      14.3691      116.406 
9.93017e-05      13.8613      27.4529 
-7.82770e-05      8.65521     -45.0000 
-4.49038e-05      14.8382     -78.6901 
1.19985e-05      14.1254     -29.9401 
7.85718e-05      16.0991     -118.859 
-4.54089e-05      11.9705      99.9595 
2.37526e-05      19.0267     -41.2280 
-4.62450e-05      15.4796     -48.9290 
-8.81787e-05      13.6878      138.554 
7.84685e-05      7.60664      83.6623 
7.68443e-05      16.7170     -45.5820 
-2.33872e-05      18.3411     -140.242 
1.17974e-05      14.8148     -128.588 
-4.41356e-05      11.5259      139.010 
-5.53005e-05      19.7703     -135.123 
8.76090e-05      15.9723     -151.749 
1.17042e-05      18.8868     -46.5455 
-3.24474e-05      17.8905      40.7155 
4.42898e-05      14.4453     -158.178 
-4.42927e-05      15.4685      98.4748 
-7.54451e-05      11.6425     -178.818 
-1.16708e-05      17.3047      40.2882 
-1.16359e-05      16.7378      156.330 
-9.81309e-05      18.4621     -143.392 
9.74564e-05      10.2206     -8.43945 
0.000119552      19.0042     -41.2877 
-1.16010e-05      17.1297     -128.315 
1.15943e-05      17.4899      53.2274 
-2.25296e-05      9.69569     -78.7579 
3.26916e-05      17.4586     -148.276 
8.64755e-05      13.9944     -154.203 
-1.15550e-05      13.9999      23.4885 
-2.28183e-05      17.3174      43.3162 
-2.22026e-05      15.6342      146.188 
5.57105e-05      19.1845      46.6467 
-1.14225e-05      17.6291      125.232 
4.36355e-05      16.2978      60.3212 
7.52195e-05      13.8898     -89.7524 
3.33547e-05      14.6016      158.550 
5.37576e-05      16.4093     -39.5114 
1.14041e-05      11.1233     -152.538 
9.68089e-05      19.7553     -139.003 
-4.33410e-05      8.59075     -151.646 
7.50882e-05      11.5092      160.670 
-3.27392e-05      17.1670     -128.472 
2.15988e-05      14.0682      61.4678 
-3.30398e-05      19.1605     -142.251 
1.11748e-05      16.1247     -39.7929 
4.26272e-05      19.4166      130.927 
-9.59732e-05      17.6710      125.255 
-2.20589e-05      12.1188     -144.776 
2.18631e-05      4.28326     -28.9045 
-6.42106e-05      13.0111      128.163 
-2.17414e-05      6.51561      156.387 
-1.11464e-05      15.8570      148.777 
5.34477e-05      17.5514      136.731 
-2.13984e-05      11.6480     -43.8515 
-3.14880e-05      15.4883     -55.0164 
-2.14029e-05      20.2376     -45.3605 
1.10574e-05      3.51616      115.253 
-4.25072e-05      19.1420      43.3496 
2.15828e-05      17.3859     -148.476 
-4.21862e-05      18.3220     -140.314 
-3.22605e-05      15.3680      11.4855 
-8.45080e-05      4.75989      74.6514 
-3.22014e-05      16.6190     -58.4328 
5.29899e-05      15.5688     -159.470 
-1.09565e-05      11.6523     -107.224 
2.13570e-05      16.2949      55.1975 
3.18371e-05      7.85103      4.16560 
-1.09019e-05      6.21852      106.250 
-5.25782e-05      17.2075     -133.800 
1.08555e-05      17.2272      52.5716 
2.15376e-05      16.3285      63.9531 
-2.12745e-05      18.7768     -54.8866 
7.35904e-05      17.6849     -144.179 
-1.08604e-05      17.9328      40.7256 
-2.11639e-05      13.4291     -102.515 
1.08145e-05      14.1404     -30.0455 
4.18237e-05      12.3314      69.4929 
2.12486e-05      17.2633      36.0938 
-2.14540e-05      15.4993     -48.8454 
2.10686e-05      16.5402     -40.2193 
-2.12705e-05      13.8493     -102.892 
2.12550e-05      11.6522     -52.9545 
1.07524e-05      4.02478     -10.3106 
-2.11299e-05      13.7060     -52.2034 
-1.07530e-05      6.76139     -167.443 
-4.18270e-05      12.8946      50.5705 
-2.11052e-05      11.6721     -107.039 
-2.11593e-05      15.7797      107.367 
-1.06692e-05      15.5129     -55.0800 
-2.10486e-05      13.8434      68.3843 
-3.12492e-05      6.47549      95.0526 
3.12051e-05      13.8792      127.713 
-3.13688e-05      17.3598      43.3203 
-2.10106e-05      14.6732      137.570 
3.14464e-05      20.5675      136.952 
1.06018e-05      18.9292     -46.5420 
2.09908e-05      19.2900     -46.5746 
-3.10951e-05      8.18414      117.033 
-3.13496e-05      19.1184     -142.267 
1.06031e-05      7.63323      83.9111 
3.12909e-05      14.5737      158.506 
-1.05582e-05      8.55009     -151.728 
3.09868e-05      16.0842     -125.588 
-3.12028e-05      12.1690      26.8163 
2.08813e-05      16.6354     -122.631 
4.15491e-05      19.2051      46.5816 
1.05107e-05      15.2309      112.221 
1.05253e-05      17.2853     -40.2123 
-1.05317e-05      16.0738      160.484 
2.07473e-05      17.3586      118.601 
2.07358e-05      19.4335     -44.1255 
-3.11150e-05      18.5041     -127.092 
2.08470e-05      21.2164      46.0303 
2.09668e-05      18.0556     -42.0369 
-2.08561e-05      6.22698      106.515 
-1.04478e-05      15.3685      6.50146 
-4.13968e-05      18.8826      127.252 
-2.06607e-05      15.5417     -48.8349 
-2.06789e-05      18.6908     -124.737 
1.04131e-05      7.60338      83.8871 
1.03952e-05     0.844524      73.4812 
2.05793e-05      15.2423      112.325 
-1.03606e-05      10.8274     -38.3615 
2.07077e-05      14.4879      72.2783 
-1.03423e-05      16.7552     -137.685 
1.03429e-05      19.0650     -50.8753 
1.03415e-05      21.4064     -134.149 
-1.03487e-05      13.6969     -81.0522 
1.03396e-05      11.3463     -52.7375 
1.03090e-05      7.27586     -176.215 
1.03230e-05      15.6993      24.0192 
1.03211e-05      20.9248     -43.3726 
-1.02830e-05      18.6280     -132.063 
-1.02755e-05      17.3359     -129.170 
-1.02709e-05      14.1548     -39.3249 
1.02908e-05      13.9873      6.77502 
1.02320e-05      17.9465      44.5934 
2.05533e-05      14.3354     -18.9281 
-2.12372e-05      15.0739      24.8313 
-2.12579e-05      15.3375      135.394 
2.11967e-05      18.4597     -38.7326 
-2.09365e-05      19.0095      132.122 
-1.05020e-05      15.3601     -14.3607 
-1.05059e-05      5.75145     -110.140 
2.05331e-05      17.7732     -53.7871 
1.03537e-05      6.16070      171.320 
1.03464e-05      11.6342     -53.0725 
-1.03303e-05      17.1695     -136.769 
-1.03034e-05      14.1388     -68.3352 
1.02645e-05      17.4719      53.3063 
-1.02408e-05      17.6922      134.450 
1.01982e-05      12.3396      112.139 
-1.02008e-05      14.1692     -170.618 
1.01904e-05      18.7505     -38.3733 
1.01469e-05      12.9200     -131.612 
1.01361e-05      13.3676      46.2714 
-1.01372e-05      19.3731      131.987 
1.01085e-05      8.86745      45.0000 
! Tentative model.
! Flux (Jy) Radius (mas)  Theta (deg)  Major FWHM (mas)  Axial ratio   Phi (deg) T \
! Freq (Hz)     SpecIndex
1.04330e-05      18.4598     -38.7325 
