! Center RA: 12 21 31.69053,  Dec: +28 13 58.50012 (2000.0)
! Established model.
! Flux (Jy) Radius (mas)  Theta (deg)  Major FWHM (mas)  Axial ratio   Phi (deg) T \
! Freq (Hz)     SpecIndex
 0.0406783      0.00000      0.00000 
 0.0560767    0.0200000     -90.0000 
 0.0250760    0.0200000      180.000 
0.00126631    0.0282843      135.000 
0.000301370    0.0447214      116.565 
0.00413924    0.0824621      104.036 
0.00438154    0.0282843     -135.000 
 0.0126858     0.101980      101.310 
0.00226630     0.120000      90.0000 
0.00116120    0.0447214     -153.435 
0.00110402     0.203961      78.6901 
0.00586971    0.0565685     -135.000 
0.000264396     0.200998      84.2894 
0.00589286     0.223607      79.6952 
0.00129449     0.121655      99.4623 
0.00259556     0.220907      84.8056 
0.000612044     0.116619     -149.036 
0.00217751     0.161245     -150.255 
0.00273356    0.0282843     -45.0000 
0.000253026     0.243310      80.5377 
0.000250338     0.316228      124.695 
0.000632432     0.178885     -153.435 
0.000364136     0.228035      105.255 
0.00105261     0.170880     -159.444 
0.00101165     0.234094      109.983 
0.000495976     0.141421      98.1301 
0.00111369     0.152315     -156.801 
0.00255373     0.878180      120.069 
0.000837011     0.260000      112.620 
0.000441401     0.100000      90.0000 
0.00191800     0.134164     -153.435 
0.000253791     0.268328      116.565 
0.00114401     0.690797      112.109 
0.00166457     0.905539      120.530 
0.00128747     0.295296      118.301 
0.000351382     0.984886      102.907 
0.000540664     0.989545      104.036 
0.000162070    0.0800000      90.0000 
0.000762435     0.965402      103.173 
0.000635383      1.74642      129.890 
0.000545714     0.683520      110.556 
0.000531752      1.72905      138.752 
0.000692228     0.922822      119.899 
0.000666811     0.332866      122.735 
0.000821980     0.970155      104.323 
0.000245921     0.344093      125.538 
0.000378784     0.651460      107.879 
0.00126074      1.73113      130.314 
0.000461826      1.75727      138.691 
0.000919295     0.503587      96.8428 
0.000591985     0.940213      119.291 
0.00126497     0.368782     -102.529 
0.000272897     0.388330     -101.889 
0.00264929     0.364966     -99.4623 
0.000534141      1.96987      131.295 
0.000533783     0.975295      105.461 
0.000203227     0.372022      126.254 
0.000337748      1.74230      138.257 
0.000741406     0.948262      117.646 
6.78827e-05      1.93080      140.042 
0.000902815      1.94618      140.421 
6.36089e-05     0.240832      85.2364 
0.000121753     0.384187      128.660 
0.000363975    0.0447214     -26.5651 
0.000780796     0.800999      87.1376 
0.000352112     0.266833      77.0054 
0.000283301     0.645601      106.189 
0.000175674     0.980816      106.587 
0.000177464     0.966023      117.096 
0.00420333      4.78920      106.997 
0.000772907     0.400500      177.138 
0.00152301      2.88028      127.666 
0.00113632     0.272029      72.8973 
5.56383e-05     0.442719      71.5651 
0.000700280     0.782304      85.6013 
0.000205066     0.975090      115.514 
0.000158272      2.41868      119.745 
0.000154402      2.13663      133.103 
0.000149196     0.461736      72.3499 
0.00111033      2.44598      119.919 
0.000276176     0.957079      116.030 
0.000655691      1.71825      129.806 
0.000243664     0.305287     -121.608 
0.000145379     0.640312      104.470 
4.76510e-05      2.15035      133.493 
0.000300380      2.17862      133.512 
0.000725491      1.72743      137.816 
4.57241e-05     0.984886      113.962 
0.00142196     0.300000     -126.870 
0.00214417      2.89254      127.979 
0.000167472     0.635610      102.724 
0.000162951     0.468188      70.0169 
4.39568e-05     0.987927      111.371 
0.000684143     0.421900      174.560 
0.00112932      2.68030      127.725 
0.000665259      2.98060      125.716 
0.000214207     0.976934      112.891 
7.87794e-05     0.247386      75.9638 
0.000322137     0.620323      69.2277 
7.64140e-05     0.966644      114.444 
0.000413309      2.19244      133.891 
0.000459773      2.32964      105.945 
0.000223166     0.252982      71.5651 
0.00126381      2.99232      126.027 
3.49607e-05     0.939149      116.565 
0.00114235      2.32422      105.471 
0.00124728      9.16020      115.614 
3.18448e-05     0.475395      67.7510 
0.000198835     0.627694      67.5206 
0.000157836     0.969330      111.801 
0.000276470     0.781025      87.0643 
3.02478e-05     0.948472      114.944 
0.000815284      8.43123      106.113 
0.000103624     0.551725      136.469 
0.000162799      2.45601      120.324 
0.000729658      6.01491      103.851 
0.000559802      6.27611      101.954 
0.000128899      2.20635      134.265 
0.000156873     0.278568      68.9625 
0.000533869      9.42321      105.511 
0.000329694      9.42857      105.628 
0.000409227      5.05078      119.407 
0.000348965     0.974064      109.179 
0.000368494      2.57527      133.112 
0.000125971      1.70294      130.236 
0.000376381     0.260000      67.3801 
2.58050e-05     0.903549      117.699 
0.000157304     0.420476      177.274 
0.000122281      8.27241      105.279 
7.33033e-05     0.800250      88.5679 
0.000271001      2.13063      99.7276 
0.000313399      4.16043      124.225 
0.000321144      2.66180      97.3386 
0.000389735      6.90220      107.017 
0.000131294      4.50977      109.158 
0.00136733      4.78339      106.768 
0.000155753     0.316228     -124.695 
0.000183309      8.24786      105.182 
0.000543256      5.04325      119.717 
6.65345e-05      7.96535      106.933 
0.000140556      1.71593      130.746 
8.56141e-05      4.53524      109.314 
8.61585e-05      2.22036      134.635 
2.22138e-05      1.96163      140.793 
0.000270643      2.57635      132.483 
8.06656e-05     0.523450      136.548 
0.000136322      1.71266      137.366 
0.000227678      4.32315      112.294 
0.000348661      7.94622      106.975 
2.10078e-05      2.67200      149.404 
0.000734230      2.68924      149.621 
0.000329441      2.14709      99.1114 
0.000224700     0.268328      63.4349 
0.000688782      2.69258      128.062 
3.97848e-05     0.483322      65.5560 
0.000115464     0.312410     -129.806 
0.000781838      7.37165      113.505 
0.000147083      2.20617      135.000 
0.000748823      2.71662      149.470 
5.75717e-05      8.42570      105.983 
0.000327269     0.328024     -127.569 
1.94395e-05      2.76101      97.0735 
0.000266061      2.75862      96.6613 
0.000356957      5.35888      117.808 
0.000108793      8.13039      116.754 
3.55484e-05      8.14825      116.691 
0.000629705      7.07248      99.2759 
0.000501076     0.465188      64.5367 
0.000248795      8.11921      101.365 
0.000289572      8.91832      117.370 
4.92376e-05      2.33829      104.868 
0.000834820      2.50344      77.0740 
0.000296547      8.25312      105.316 
1.74648e-05     0.617414      65.0952 
0.000663555     0.286356      65.2249 
0.000132477      7.93940      118.760 
3.41434e-05      1.72627      136.878 
0.000204458      2.22036      135.365 
1.67699e-05      1.71406      131.689 
0.000310747      1.71172      136.420 
0.000563173      9.45213      123.522 
6.25428e-05     0.967678      108.060 
8.08058e-05      4.97244      103.254 
0.000524213      8.11529      101.227 
0.000160685      1.72743      132.184 
0.000281002      2.75637      96.2484 
1.61759e-05      7.93221      109.440 
0.000158677      2.28254      98.0591 
0.000191336      6.01016      103.666 
7.72238e-05      4.17698      124.071 
0.000278967     0.392938     -104.744 
0.000436813      7.96656      118.817 
0.000217736      2.14402      98.5836 
0.000305561      7.95208      107.113 
0.000542699      4.96790      103.029 
7.22526e-05      2.56445      131.522 
2.99565e-05     0.420000      180.000 
1.54319e-05      8.15725      116.816 
5.81550e-05      4.34925      112.437 
0.000278321      5.03587      120.027 
4.24005e-05      6.88308      107.066 
8.39581e-05     0.357771      26.5651 
0.000203137      4.14922      123.996 
0.000539958      2.88922      128.536 
0.000415852      2.34350      105.341 
0.000336175      4.63280      104.756 
0.000348084      8.42173      114.557 
0.000220701      8.69384      116.506 
0.000442440     0.325576     -132.510 
1.39754e-05     0.961665      106.928 
1.39739e-05      7.09546      99.4092 
0.000835457      7.09222      99.2498 
0.000362452      2.69585      123.808 
0.000193786      6.67835      98.7853 
0.000345733      2.70651      149.835 
0.000107479      6.66168      98.9816 
0.000261877      2.77626      96.2034 
0.000448934      5.98602      103.526 
0.000162831      2.73386      149.683 
0.000230696      5.36824      117.997 
0.000279030     0.349285      23.6294 
0.000325217      8.11142      101.088 
0.000147114      5.94633      119.410 
0.000317567      2.27982      97.5614 
1.29040e-05      4.50324      108.918 
6.13307e-05      4.18306      110.428 
0.000128381      8.21443      100.380 
0.000149243      2.23464      135.725 
8.34234e-05      1.72627      133.122 
8.65935e-05      9.15157      115.501 
0.000111225     0.398497     -107.526 
0.000538215      9.46319      123.623 
0.000262327      8.70278      116.624 
0.000388609      5.02864      120.338 
5.40464e-05      2.12735      99.1967 
2.28780e-05      4.17612      110.171 
0.000226129      8.23383      105.353 
0.000138062      4.16581      123.843 
0.000214758      1.71126      135.474 
8.02467e-05      6.88898      107.225 
0.000217902      4.19490      110.076 
3.95364e-05      9.41788      105.394 
0.000105901      4.76424      106.837 
9.26450e-05      7.99372      118.874 
7.90102e-05      6.67533      98.6156 
0.000172436      7.93889      107.294 
5.14990e-05      8.02661      100.190 
0.000263080      2.52293      77.1756 
0.000260467      6.42925      112.496 
4.04165e-05     0.449444     -122.276 
0.000161593     0.664831      43.7811 
0.000123806      6.65859      98.8116 
9.40503e-05      2.24900      136.081 
7.14693e-05      8.92753      117.484 
0.000118443      8.02309      100.049 
0.000140100     0.460435     -124.380 
3.69302e-05      4.27200      122.574 
7.34432e-05      7.97621      118.943 
7.68162e-05      4.25516      122.719 
0.000104560      2.77417      95.7928 
5.19123e-05      5.96376      119.316 
0.000112284      2.41238      78.0379 
7.73597e-05      9.25592      122.110 
9.49345e-05      8.69391      116.801 
6.94548e-05      2.96897      125.403 
5.06587e-05      8.21805      100.517 
5.86359e-05      7.36369      113.362 
6.65639e-05      4.96343      102.804 
8.28132e-05      8.47030      116.807 
-0.000182522      8.41867      107.703 
5.77810e-05      9.05167      116.792 
5.75349e-05      8.45044      106.076 
3.31207e-05      8.00340      118.999 
4.88790e-05      2.26345      136.432 
6.50694e-05      1.33821      99.4623 
2.44235e-05      2.65481      149.184 
4.02204e-05      2.52745      76.7335 
7.86052e-06     0.474131      62.3540 
0.000780320      8.74002      135.371 
0.000726134      6.61955      140.394 
0.000421957      4.98016      142.670 
0.00101479      5.89620      148.736 
0.000187644      8.75409      135.278 
0.000217131      4.96427      142.530 
9.49823e-05      4.96806      142.853 
0.000205138      8.67421      136.962 
2.73091e-05      8.93855      135.725 
! Tentative model.
! Flux (Jy) Radius (mas)  Theta (deg)  Major FWHM (mas)  Axial ratio   Phi (deg) T \
! Freq (Hz)     SpecIndex
0.000117363      6.63497      140.504 
0.000185410      8.74002      135.371 
0.000148181      4.96427      142.530 
0.000279548      5.89620      148.736 
0.000164617      8.95288      135.815 
0.000209552      6.65002      141.717 
0.000163496      8.67421      136.962 
0.000133057      5.96376      119.316 
6.63068e-05      8.68788      136.866 
6.60146e-05      5.91331      148.837 
0.000106737      4.96955      141.700 
4.37544e-05      6.63231      140.261 
0.000127545      4.26601      122.945 
0.000106198      4.63280      104.756 
4.30508e-05      4.96806      142.853 
4.19876e-05      9.25592      122.110 
4.23500e-05      4.96790      103.029 
8.29494e-05      7.37165      113.505 
2.10181e-05      9.29415      122.254 
4.13681e-05      8.24323      107.072 
2.05868e-05      3.99625      121.701 
2.03142e-05      4.97244      103.254 
2.03073e-05      8.03841      118.861 
