! Center RA: 12 21 31.69052,  Dec: +28 13 58.50019 (2000.0)
! Established model.
! Flux (Jy) Radius (mas)  Theta (deg)  Major FWHM (mas)  Axial ratio   Phi (deg) T \
! Freq (Hz)     SpecIndex
 0.0446767      0.00000      0.00000 
 0.0281921    0.0200000      0.00000 
0.00661022    0.0282843      135.000 
0.00111535    0.0400000      0.00000 
0.00489262     0.101980     -11.3099 
 0.0224174     0.145602     -15.9454 
0.00611316    0.0721110      146.310 
0.00410236    0.0565685      135.000 
 0.0118929    0.0848528      135.000 
0.000397044    0.0824621     -14.0362 
0.000710675    0.0632456     -18.4349 
0.00298918     0.100000      126.870 
0.000338369    0.0447214     -26.5651 
0.000665031     0.126491     -18.4349 
0.000328183    0.0200000      180.000 
0.000320524    0.0282843     -45.0000 
0.000313401    0.0200000     -90.0000 
0.00121865     0.116619      120.964 
0.000436618    0.0400000      180.000 
0.000601317    0.0282843     -135.000 
0.00116206     0.107703      111.801 
0.000703113    0.0447214     -153.435 
0.00141790    0.0632456     -161.565 
0.00268683     0.126491      108.435 
0.00764803    0.0824621     -165.964 
0.00351092     0.189737     -18.4349 
0.00478955     0.170880     -20.5560 
0.00141632     0.121655      99.4623 
0.00585172     0.141421      98.1301 
0.000864468     0.107703     -158.199 
0.000532486     0.161245      97.1250 
0.000338426     0.101980      101.310 
0.000341256     0.181108      96.3402 
0.000168913    0.0894427      116.565 
0.00306282    0.0894427     -153.435 
0.00221459     0.184391      102.529 
0.00377315    0.0824621      104.036 
0.000749819     0.404475      171.469 
0.00304045     0.203961      101.310 
0.000490157    0.0721110      123.690 
0.00100584     0.427551      169.216 
0.000734482    0.0632456      108.435 
0.000348203     0.540370      92.1211 
0.000224874     0.541479      94.2364 
0.00152447     0.100000      180.000 
0.000853914     0.101980     -168.690 
0.000320703     0.200000      90.0000 
0.00120475     0.200998      95.7106 
0.000908888    0.0800000      180.000 
0.000844110    0.0600000      180.000 
0.000656659    0.0632456      161.565 
0.000249811     0.144222     -33.6901 
0.00108627     0.188680     -32.0054 
0.000480843     0.521536      94.3987 
0.000998293     0.543323      96.3402 
0.000231430    0.0400000     -90.0000 
0.000738198    0.0447214     -116.565 
0.00187155     0.820244      88.6028 
0.000362366     0.208806      106.699 
0.000284606     0.565685      98.1301 
0.000191770    0.0565685     -135.000 
0.000187995     0.205913     -29.0546 
0.000954037    0.0800000      90.0000 
0.000441520     0.523450      133.452 
0.000272526    0.0721110     -123.690 
0.00352426     0.965402      103.173 
0.00297040     0.233238     -30.9638 
0.000253477    0.0848528     -135.000 
0.00153719     0.538145      131.987 
8.05753e-05     0.100000     -143.130 
0.00130739    0.0824621      75.9638 
7.91767e-05     0.840238      88.6361 
0.000446671     0.128062     -141.340 
0.000539360      2.93503      107.447 
0.000352491     0.820000      90.0000 
0.00119246      2.92910      107.074 
0.000866565     0.156205     -140.194 
0.000131219     0.820244      91.3972 
6.55771e-05     0.823650      119.055 
6.37474e-05     0.800250      91.4321 
0.000767268      2.72595      93.7861 
0.000782788     0.841190      118.393 
0.00123369      2.69704      103.727 
0.000408298     0.800999      92.8624 
0.000681924      2.72125      104.036 
0.000175192      2.92329      106.699 
5.99731e-05      2.88201      105.290 
0.000116445      2.87680      104.906 
0.000975651    0.0632456      71.5651 
0.000268887      2.87172      104.520 
0.000476020     0.184391     -139.399 
0.00147385      2.72470      93.3665 
0.000304937     0.802247      94.2892 
0.000104578     0.169706     -135.000 
0.000570661     0.196977      113.962 
0.000421026      2.86678      104.133 
0.000182184      2.70185      104.139 
0.000314312     0.840952      115.346 
0.000292461     0.782304      94.3987 
0.000448528     0.495177     -133.363 
0.000290681     0.950789      75.3791 
0.000685074     0.945939      103.449 
4.33611e-05     0.803990      95.7106 
0.000463347      2.84253      103.841 
0.000896191      2.86196      103.745 
0.000604806      3.73101      97.3917 
0.000269985    0.0565685      45.0000 
0.000963788     0.849706      116.565 
0.000986908      3.67315      111.396 
0.00158130      2.74467      93.3419 
0.000268699     0.212603     -138.814 
0.000246259     0.100000     -36.8699 
0.000283454     0.260768     -32.4712 
7.73878e-05      2.99252      98.4550 
0.000117561    0.0721110     -33.6901 
0.000395285      2.97274      98.5117 
0.000135836     0.970155      104.323 
0.000295056      3.75281      106.407 
0.000160306     0.509117     -135.000 
0.000101658      9.34469      112.393 
3.41653e-05     0.349285     -113.629 
0.00103956      9.33709      112.280 
0.000764134     0.323110     -111.801 
3.32693e-05     0.784092      95.8560 
0.000802221      9.51874      115.381 
0.000242094    0.0894427     -26.5651 
0.000432867      3.72848      97.0869 
0.000305288     0.950789      104.621 
9.23856e-05      3.92658      102.054 
0.00106751      1.33417      102.995 
0.000120391     0.808950      98.5308 
0.000987147      7.68482      105.085 
0.000205667     0.272029     -36.0274 
0.000160707      3.75851      106.699 
0.000620103      3.94614      101.993 
0.000225298     0.240832     -138.366 
0.000463392     0.215407      111.801 
0.000107865     0.812158      99.9262 
0.000397455     0.858836      117.759 
0.000206868      2.83782      103.449 
0.000101671     0.523450     -136.548 
0.000125625    0.0721110      56.3099 
0.000167145     0.815843      101.310 
2.55128e-05      2.94109      107.819 
0.000861809      1.94041      91.1812 
0.000475185      3.72607      96.7817 
0.000913431      1.93132      111.251 
8.78263e-05     0.551725      133.531 
0.000779168      3.22899      116.089 
0.000845907      6.75526      102.308 
0.000135375      2.67290      103.412 
0.000593501      3.66191      111.801 
4.61649e-05      2.85727      103.355 
2.28492e-05      8.85352      103.189 
0.000431976     0.269072     -138.013 
0.000525807      9.18592      116.230 
0.000211442      2.95412      107.331 
0.000274422      8.85810      103.315 
0.000251223      9.51018      115.272 
0.000125131     0.820000      102.680 
0.000284651     0.284253     -39.2894 
0.000176271      2.66833      102.995 
0.000294658      1.83096      96.2711 
0.000205497     0.868332      118.926 
5.72653e-05      2.88901      116.742 
0.000330126     0.551725     -136.469 
0.000198413     0.824621      104.036 
0.000186292      8.86273      103.440 
0.000960735      6.53483      114.212 
0.000484355      4.81120      98.3659 
7.27385e-05      9.02339      113.099 
8.74037e-05      2.94822      106.960 
0.000181743      3.72376      96.4761 
0.000400507      2.66391      102.575 
6.74556e-05     0.926499      76.2637 
0.000202035      8.88684      103.536 
0.000518382      9.01556      112.982 
0.000409253      8.07257      104.931 
0.000273814     0.107703     -21.8014 
5.17082e-05      4.75752      111.712 
5.15769e-05      8.43123      106.113 
0.000141003      3.38615      97.1250 
0.000183220      9.32952      112.166 
0.000202942     0.829699      105.376 
0.000593373      4.76496      111.935 
0.000413892      8.43680      106.244 
3.30389e-05      1.75647      82.1467 
0.000182478     0.282843     -135.000 
7.73698e-05      3.03058      106.880 
0.000164087      9.48357      115.214 
0.000137309      1.75932      81.5014 
4.13283e-05      3.38869      97.4606 
0.000310153      8.89155      103.661 
4.57157e-05      3.74593      96.7456 
0.000126726     0.580345      88.0251 
5.53295e-05      2.89807      117.096 
0.000134437      1.92094      91.7899 
0.000351514     0.835225      106.699 
0.000522680      4.80833      98.1301 
0.000175766      4.97695      104.427 
0.000155511     0.300000     -36.8699 
0.000196188      3.03645      107.241 
0.000263723      3.96989      102.216 
0.000266515     0.297321     -137.726 
0.000128745      3.72156      96.1702 
2.71807e-05      2.08471      86.1494 
2.66444e-05    0.0894427      63.4349 
7.61782e-05     0.841190      108.004 
4.92516e-05      8.61972      104.101 
0.000120825      9.34805      112.120 
0.000251531      8.44242      106.374 
0.000206420      7.30775      105.558 
4.64741e-05     0.921954      77.4712 
9.20762e-05      2.08614      85.6013 
4.68452e-05      8.72330      101.104 
2.43643e-05      2.84738      104.231 
0.000181362     0.463897      7.43141 
0.000201400      8.89629      103.786 
4.74234e-05     0.581378      86.0548 
2.39468e-05      1.82888      95.6482 
0.000110505      3.66939      112.091 
4.48692e-05      3.71946      95.8639 
6.55031e-05     0.561427      85.9144 
2.18853e-05     0.121655     -9.46232 
4.30070e-05      9.36658      112.074 
4.26285e-05      2.68782      102.899 
2.12339e-05     0.304631     -113.199 
2.11499e-05      3.98984      94.0242 
2.09947e-05      1.94010      90.5907 
2.07845e-05     0.461736      4.96974 
2.07131e-05      9.34054      112.006 
! Tentative model.
! Flux (Jy) Radius (mas)  Theta (deg)  Major FWHM (mas)  Axial ratio   Phi (deg) T \
! Freq (Hz)     SpecIndex
0.00103009      7.26099      89.0530 
0.000548328      6.94026      89.5047 
0.000212522      6.75526      102.308 
8.87643e-05     0.100000      36.8699 
0.000226155      7.30775      105.558 
0.000166740      1.94041      91.1812 
8.57770e-05     0.100000      53.1301 
0.000206335      3.96989      102.216 
0.000103282      1.33417      102.995 
0.000106030      4.80833      98.1301 
0.000103161      3.64664      93.4587 
0.000122622      2.08614      85.6013 
0.000122271      6.51659      114.284 
0.000163616      2.95412      107.331 
0.000102617      9.36658      112.074 
0.000120397     0.537401     -135.000 
0.000120990     0.844038      103.707 
6.00393e-05      9.47506      115.105 
8.07498e-05      4.98197      104.650 
2.09582e-05     0.523450     -133.452 
8.00128e-05     0.463897      7.43141 
9.98586e-05      4.78351      111.846 
4.09381e-05     0.164924     -14.0362 
2.05251e-05    0.0848528      45.0000 
-9.76173e-05      7.92336      105.369 
2.00606e-05     0.316228     -34.6952 
7.80660e-05      4.80554      97.8940 
5.83415e-05     0.184391     -12.5288 
5.82172e-05      2.65962      102.155 
1.95210e-05      1.10454      137.936 
1.94196e-05      9.18592      116.230 
3.81680e-05    0.0894427      63.4349 
1.92297e-05      9.35908      111.961 
1.89982e-05      1.94010      90.5907 
1.88852e-05      4.99632      104.370 
