! Center RA: 12 21 31.69052,  Dec: +28 13 58.50011 (2000.0)
! Established model.
! Flux (Jy) Radius (mas)  Theta (deg)  Major FWHM (mas)  Axial ratio   Phi (deg) T \
! Freq (Hz)     SpecIndex
 0.0562582     0.101980     -78.6901 
0.000871216    0.0282843     -45.0000 
 0.0211968     0.121655     -80.5377 
 0.0113481    0.0200000      0.00000 
0.00332029    0.0400000      0.00000 
 0.0232364    0.0282843      45.0000 
0.00481121     0.120000     -90.0000 
0.00702835     0.180000      90.0000 
 0.0119294     0.140000     -90.0000 
0.00279998     0.160000      90.0000 
 0.0112319     0.161245      97.1250 
0.000533958    0.0447214     -26.5651 
0.00301375     0.181108      96.3402 
0.000486180     0.200000      90.0000 
0.000763028     0.220000      90.0000 
0.00276362    0.0600000      90.0000 
0.00109631     0.240000      90.0000 
0.00131022     0.121655      99.4623 
0.00138753     0.141421      98.1301 
0.000741952     0.260000      90.0000 
0.000518416    0.0632456     -18.4349 
0.000513458     0.280713      94.0856 
0.000610127     0.302655      97.5946 
0.00122994    0.0894427     -26.5651 
0.00203665     0.325576      100.620 
0.000275671    0.0400000      90.0000 
0.000672388     0.107703     -21.8014 
0.00200199     0.349285      103.241 
9.17840e-05     0.116619     -30.9638 
0.00179857     0.134164     -26.5651 
0.000332995     0.345254      100.008 
8.06768e-05     0.200998      95.7106 
0.000159982     0.364966      99.4623 
0.000575077     0.164924      104.036 
0.000721208     0.444072      97.7652 
7.45915e-05     0.184391      102.529 
0.000635917     0.533667      102.995 
0.000344892     0.240832      94.7636 
0.000945158     0.160000     -90.0000 
6.89912e-05     0.260768      94.3987 
0.000130726     0.329848      104.036 
0.000389257     0.557853      104.534 
0.000127165      2.21359      108.435 
! Tentative model.
! Flux (Jy) Radius (mas)  Theta (deg)  Major FWHM (mas)  Axial ratio   Phi (deg) T \
! Freq (Hz)     SpecIndex
0.000774686     0.286356      102.095 
0.000752520     0.266833      102.995 
0.000265350     0.404475      98.5308 
9.35085e-05     0.247386      104.036 
0.000621554     0.424264      98.1301 
0.000319933     0.223607      100.305 
0.000181441     0.203961      101.310 
8.92598e-05     0.126491      108.435 
8.78495e-05     0.107703      111.801 
0.000255700    0.0894427      116.565 
0.000388227     0.444072      97.7652 
0.000844264     0.557853      104.534 
0.000244853     0.243310      99.4623 
0.000404964    0.0447214      116.565 
0.000155809     0.349285      103.241 
0.000230495    0.0282843      135.000 
0.000834263     0.582409      105.945 
7.64593e-05     0.184391      102.529 
0.00204479      2.21359      108.435 
0.000221709    0.0200000      180.000 
0.000439234     0.388330      101.889 
0.000282394     0.164924      104.036 
0.000351889    0.0400000     -90.0000 
0.000691871     0.368782      102.529 
0.000201710    0.0632456     -71.5651 
0.000879363     0.141421      98.1301 
0.00114848     0.607289      107.241 
0.000162147     0.161245      97.1250 
0.000858822    0.0824621     -75.9638 
0.000167777     0.101980     -78.6901 
0.000424606     0.632456      108.435 
0.000763852     0.107703     -68.1986 
0.000208460     0.121655      99.4623 
0.000349090     0.373631      105.524 
5.06202e-05     0.683520      110.556 
0.000245939     0.709366      111.501 
0.000146629     0.407922      101.310 
0.000435599    0.0600000      90.0000 
0.000187768      2.20109      109.093 
0.000500205     0.735391      112.380 
9.36101e-05     0.427551      100.784 
4.67655e-05      2.22000      108.925 
0.000808802     0.126491     -71.5651 
0.000132722     0.200998      95.7106 
0.000218108      2.20771      109.584 
0.000315061     0.354401      106.390 
8.56028e-05     0.743236      113.806 
8.39880e-05      2.22639      107.784 
0.000415709     0.761577      113.199 
4.14172e-05    0.0800000      90.0000 
0.000275941      2.19572      110.251 
0.000238951     0.220907      95.1944 
0.000451774     0.463897      97.4314 
7.95812e-05      2.24544      107.628 
0.000700587     0.769675      114.567 
0.000219674      2.23946      107.140 
0.000915999     0.145602     -74.0546 
0.000385679    0.0447214      63.4349 
0.000144982      2.20273      110.739 
7.08701e-05      2.78352      109.737 
0.000172496      2.77157      110.266 
0.000732347      2.18403      110.925 
0.000474638     0.461736      94.9697 
3.45832e-05      2.82708      108.563 
0.000189782     0.335261      107.354 
0.000262374     0.787909      113.962 
0.000315254      2.25858      106.991 
0.000101147      2.84605      108.435 
0.000319849     0.240832      94.7636 
3.30159e-05      2.87138      108.687 
3.28038e-05      2.77856      110.653 
3.26190e-05      2.86503      108.308 
0.000244873     0.116619     -30.9638 
0.000188930      2.75986      110.799 
0.000217944      2.89033      108.560 
0.000287269      2.40973      108.886 
3.13579e-05     0.563205      106.504 
0.000486072     0.958541      113.356 
9.11514e-05    0.0632456      71.5651 
6.16755e-05     0.796241      115.278 
0.000521965      2.76702      111.186 
0.000451673      2.91568      108.808 
0.000424621     0.161245     -82.8750 
0.000350410     0.778203      115.907 
5.71363e-05    0.0824621      75.9638 
0.000499770     0.134164     -26.5651 
0.000322041     0.360555      109.440 
0.000334777     0.460435      92.4896 
0.000257700      2.23365      106.650 
0.000495146     0.164924     -75.9638 
8.03998e-05     0.481664      94.7636 
0.000172396     0.101980      78.6901 
0.000641072      2.19126      111.413 
0.000248319     0.966644      114.444 
0.000143863      2.43516      109.179 
0.000486210      2.77431      111.571 
0.000375371     0.787147      117.216 
4.72233e-05     0.581378      116.565 
0.000513706     0.152315     -23.1986 
0.000135377     0.480416      92.3859 
0.000398439      2.94109      109.051 
0.000224609     0.984886      113.962 
0.000328307      2.22800      106.157 
0.000108303     0.460000      90.0000 
4.42972e-05     0.590593      118.301 
0.000380495      2.44180      109.622 
0.000121975     0.121655      80.5377 
0.000250187      1.02157      66.9487 
0.000264121     0.573062      119.249 
0.000647054     0.993177      115.017 
0.000323938     0.480000      90.0000 
0.000520662      1.89842      110.344 
0.000953433      1.01390      67.9887 
0.000305790     0.796492      118.496 
0.000365332      2.78173      111.954 
0.000187514     0.220000      90.0000 
0.000707439     0.178885     -26.5651 
3.74700e-05     0.141421      81.8699 
0.000255769      2.94768      109.418 
0.000957012     0.181108     -83.6598 
0.000101883     0.107703      68.1986 
0.000393907      2.21721      111.705 
0.000221267     0.480416      87.6141 
9.28999e-05      2.22252      105.662 
0.000151215     0.583095      120.964 
4.71050e-05     0.585491      97.8533 
0.000108458     0.806226      119.745 
0.000105259     0.460435      87.5104 
0.000311068      3.00466      101.908 
0.000192037     0.126491      71.5651 
4.57280e-05      2.93557      109.916 
1.54252e-05      2.85237      104.621 
0.00132002     0.170880     -20.5560 
8.45613e-05     0.367696      112.380 
0.000182227     0.957079      100.840 
0.000145839      2.78927      112.335 
4.37232e-05     0.184391     -77.4712 
0.000189175      2.84738      104.231 
0.000165877      5.55442      147.798 
2.94302e-05      2.94245      110.283 
0.000228691      1.00180      116.053 
7.06290e-05     0.583095      95.9061 
8.62562e-05      2.98510      101.988 
0.000562237      1.89156      109.776 
2.87001e-05      2.93073      110.785 
7.04093e-05     0.816333      120.964 
0.000146399      1.03247      81.0851 
0.000107642      2.07461      109.134 
4.18901e-05      2.19791      105.301 
0.000109073     0.820975      87.2073 
0.000304852      2.44859      110.063 
0.000108644      2.93789      111.150 
6.64231e-05     0.920869      124.380 
0.000136595      2.19272      104.797 
8.94128e-05      2.79693      112.714 
0.000216222     0.566039      122.005 
0.000229194     0.461736      85.0303 
5.19901e-05     0.581378      93.9452 
0.000169757      2.94517      111.512 
0.000222635     0.932309      125.395 
0.000157696      5.57136      147.907 
9.04528e-05      2.60346      111.638 
0.000503686      1.08812      107.103 
0.000150485     0.600333      91.9092 
1.24737e-05     0.181108      83.6598 
9.29210e-05      2.06814      108.610 
3.52831e-05     0.393954      113.962 
0.000190508     0.822192      85.8151 
0.000173278      1.02956      82.1847 
0.000451968      2.84253      103.841 
6.71887e-05      5.58201      147.733 
0.000256512      1.01074      117.072 
0.000109007      2.80471      113.091 
0.000123906     0.116619      59.0362 
0.000240034     0.200998      84.2894 
0.000198224      2.22468      112.184 
6.54970e-05      2.16342      103.908 
3.29037e-05      2.06320      106.327 
0.000168112      2.95256      111.873 
3.28591e-05     0.600000      90.0000 
0.000257445      3.13356      104.036 
0.000142020     0.625140      82.6476 
1.07446e-05      2.07162      105.110 
6.62775e-05     0.402492      116.565 
0.000190426     0.576888      123.690 
5.09849e-05      2.13925      103.517 
0.000202498     0.960208      125.676 
6.49517e-05      2.05767      105.792 
0.000143094      2.81261      113.466 
0.000311022     0.840952      87.2737 
0.000145850      5.59893      147.843 
1.96066e-05      2.11518      103.116 
4.62010e-05      2.06184      108.083 
0.000128577      1.02703      83.2902 
0.000491590      1.18152      92.9108 
8.37292e-05      2.97113      111.730 
0.000134904      2.13467      102.995 
0.000312682     0.463897      82.5686 
0.000158650      2.61090      112.046 
6.17694e-05      2.85727      103.355 
1.83938e-05      5.58831      148.016 
6.02649e-05     0.134164      63.4349 
0.000129550      5.51220      148.501 
6.83606e-05      2.97859      112.087 
0.000223831      1.88489      109.204 
7.38147e-05      2.25078      112.463 
4.96840e-05      3.14617      112.816 
0.000186756      2.53693      104.146 
0.000128064     0.588218      125.311 
0.000122937     0.411825      119.055 
0.000196584      2.11073      102.588 
0.000125082      2.45552      110.501 
5.50758e-05      2.05572      107.554 
0.000441421      3.15398      113.151 
1.59140e-05     0.944034      126.384 
0.000191088      1.02000      118.072 
0.000114130     0.128062      51.3402 
0.000224661      2.82064      113.839 
0.000210332      1.09417      108.104 
0.000225489     0.628013      80.8377 
5.97058e-05      2.96007      112.233 
0.000170131     0.972008      126.634 
9.31120e-05      2.23231      112.659 
5.18908e-05      1.90589      118.179 
0.000451488      1.91541      118.706 
2.14440e-05      2.04978      107.021 
0.000123936      5.52927      148.610 
7.06812e-06      2.05232      105.255 
8.90870e-05     0.622896      137.603 
0.000154876      2.96769      112.590 
1.34520e-05      2.04714      104.715 
0.000296792      2.10647      102.057 
3.93195e-05     0.200998     -84.2894 
5.07344e-05      2.04402      106.484 
0.000123840      3.13847      104.390 
0.000200639      2.55633      104.036 
0.000239164      2.83782      103.449 
0.000228836      2.25850      112.932 
0.000118021      5.60960      147.670 
6.79767e-05     0.604649      124.216 
0.000262853     0.203961     -78.6901 
7.73478e-05     0.421900      121.430 
0.000105021      1.87840      108.628 
1.75153e-05     0.799250      121.701 
1.80080e-05      1.21211      127.626 
0.000184203      1.20150      92.8624 
7.05091e-05      2.03843      105.945 
0.000202003      1.05224      81.2538 
9.02629e-05      1.22801      127.057 
0.000186819     0.637809      138.814 
4.64628e-05      2.46260      110.937 
0.000202631     0.447214      79.6952 
0.000270903      1.10055      109.093 
4.61796e-05      1.02859      116.565 
5.42581e-06      2.59237      112.212 
0.000161374     0.787909      66.0375 
0.000347635      1.24016      127.794 
1.99838e-05     0.782304      122.471 
8.06850e-05      2.60000      112.620 
0.000258843      2.82878      114.209 
0.000122582      2.03303      105.403 
8.02486e-05      3.16190      113.484 
9.67559e-05     0.593633      122.619 
8.20322e-05     0.394462      120.466 
7.72236e-05      1.87211      108.048 
0.000122561     0.772528      111.251 
9.24413e-05      1.89747      122.518 
0.000172960      2.10238      101.524 
6.92788e-05      1.01980      115.560 
6.24540e-05      3.15297      103.948 
2.91126e-05     0.840238      88.6361 
6.79178e-05      2.08471      118.040 
0.000122080      3.17238      113.009 
0.000109515      1.20266      93.8141 
1.25476e-05     0.793221      123.690 
5.77286e-05      2.94924      112.739 
2.67629e-05     0.956033      127.349 
7.28704e-05      1.86601      107.464 
9.46408e-05      2.24009      113.131 
1.53329e-05      2.02781      104.859 
8.21812e-05      1.90704      99.6599 
1.50282e-05      2.46982      111.371 
2.28915e-05      3.20456      101.520 
3.19607e-05     0.984073      127.569 
3.29329e-05     0.226274     -45.0000 
3.28059e-05     0.451221      77.1957 
1.82310e-05     0.820244      88.6028 
1.79681e-05      3.20861      101.870 
1.42695e-05      1.88064      122.845 
3.62208e-06     0.631506      79.0459 
1.82632e-05      2.17366      102.758 
3.50908e-06      1.88510      107.281 
0.000223398      1.34715      161.834 
0.000130118      1.35351      161.030 
0.000319592      1.34164      153.435 
0.000148888      1.32816      161.565 
4.64673e-05      1.89789      118.996 
2.36148e-05      1.81945      123.341 
3.02000e-05      1.89114      107.860 
2.22347e-05      1.80278      123.690 
2.18628e-05     0.652993      139.970 
7.27153e-06     0.796241      64.7223 
7.23352e-06      5.61587      147.951 
7.17184e-06      1.04938      82.3332 
0.000106210      3.80526      140.117 
0.000235337      3.78993      139.923 
0.000127153      3.81811      139.887 
0.000339383      1.95888      147.933 
3.15721e-05      1.98645      147.750 
0.000263646      2.56164      137.215 
7.12398e-05      2.21269      139.399 
0.000153291      2.42685      98.5308 
0.000106862      1.15948      165.005 
2.41350e-05      2.88368      99.9850 
8.05456e-05      2.19754      139.059 
2.94213e-05     0.968297      128.290 
2.96888e-05      2.88721      100.376 
9.21149e-05      3.31699      110.839 
2.82082e-05      5.50178      148.679 
6.28623e-05      1.78997      129.560 
2.07768e-05      2.45308      114.057 
3.40946e-05      3.21279      102.219 
2.73963e-05      2.90689      100.305 
2.72481e-05     0.331059      154.983 
2.02669e-05      2.11178      118.264 
1.35141e-05      2.83704      114.578 
6.86232e-06      2.15425      138.764 
2.02546e-05      1.88404      99.1623 
6.77465e-06      1.33462      160.750 
6.74922e-06      2.94156      112.380 
1.33422e-05     0.804984      63.4349 
1.33211e-05      2.42396      98.0632 
6.69373e-06      1.83052      123.864 
