! Center RA: 12 21 31.69052,  Dec: +28 13 58.50011 (2000.0)
! Established model.
! Flux (Jy) Radius (mas)  Theta (deg)  Major FWHM (mas)  Axial ratio   Phi (deg) T \
! Freq (Hz)     SpecIndex
 0.0266671    0.0212132      45.0000 
0.00732472    0.0300000      0.00000 
0.000534784    0.0335410      26.5651 
0.00983862    0.0150000      0.00000 
0.00734376    0.0150000      90.0000 
0.00206910      0.00000      0.00000 
0.00897611    0.0212132      135.000 
0.00102826     0.255441      86.6335 
 0.0118566     0.255000      90.0000 
0.00147424    0.0335410      116.565 
0.00561894    0.0300000      90.0000 
0.00213207    0.0474342      71.5651 
0.000435851     0.240468      86.4237 
0.000421736     0.225499      86.1859 
0.000818250    0.0670820      63.4349 
0.000402043     0.240000      90.0000 
0.000781066     0.100623      63.4349 
0.000390424    0.0874643      59.0362 
0.00300210     0.108167      56.3099 
0.00393807     0.120934      60.2551 
0.00292377     0.270416      93.1798 
0.000895355     0.285394      93.0128 
0.00246327    0.0150000      180.000 
0.000289402     0.286575      96.0090 
0.00293068     0.301496      95.7106 
0.00100428     0.117154      50.1944 
0.00887390     0.129035      54.4623 
0.000955277    0.0335410     -153.435 
0.00207442     0.318198      98.1301 
0.00171832    0.0212132     -135.000 
0.00163421     0.335410      100.305 
0.00198222    0.0335410     -116.565 
0.000567522     0.350179      99.8658 
0.000719459     0.353058      102.265 
0.00133553     0.367730      101.768 
0.00231805    0.0474342     -108.435 
0.00119833     0.385649      103.496 
0.000284644     0.400250      102.995 
0.000142301     0.450999      93.8141 
0.00107928     0.138293      49.3987 
0.000673680     0.465967      93.6914 
0.000136209     0.356546      104.621 
0.000265303     0.375000      106.260 
0.000624851     0.360624      106.928 
0.000128822     0.480937      93.5763 
0.000379319    0.0450000     -90.0000 
0.000368412     0.482105      95.3558 
0.000957387     0.138293      40.6013 
0.000568863     0.497041      95.1944 
0.00287054    0.0600000     -90.0000 
0.000201001     0.658976      101.821 
0.000306340     0.379473      108.435 
0.000740512     0.676831      102.804 
0.000985734     0.498623      96.9112 
0.000227701     0.393732      107.745 
0.000535813     0.483735      97.1250 
0.00133916     0.141510      32.0054 
0.000431609     0.694874      103.736 
0.000316861     0.408044      107.103 
0.000188002     0.680312      104.036 
0.000103667     0.422404      106.504 
0.000491894     0.698588      104.931 
0.000194454     0.485824      98.8807 
0.000771818     0.717025      105.781 
9.77470e-05     0.426907      108.435 
0.000365275     0.500650      98.6156 
0.000874052     0.154434      29.0546 
9.08904e-05     0.441163      107.819 
0.00170137    0.0618466     -75.9638 
0.000521474     0.740034      107.700 
8.87450e-05     0.332039      108.435 
8.78755e-05     0.480234      104.470 
8.61154e-05     0.455467      107.241 
0.000168606     0.313209      106.699 
0.000487691     0.763823      109.502 
8.34130e-05     0.469814      106.699 
8.15678e-05     0.494773      104.036 
0.000381751     0.298873      107.526 
8.07114e-05     0.480234      88.2101 
0.000464661     0.161555      21.8014 
0.000311422     0.484200      106.189 
0.000156410     0.480937      86.4237 
0.000605533     0.788321      111.194 
0.000149917     0.498623      105.709 
7.55743e-05     0.482105      84.6442 
0.000147596     0.471010      80.8377 
0.000145330     0.175570      19.9831 
7.25967e-05     0.488595      107.879 
7.23527e-05     0.813465      112.782 
7.17202e-05     0.502892      107.354 
0.000613104     0.752396      94.5739 
0.000465044     0.303727      110.225 
0.000687816     0.284605      108.435 
0.000250583     0.523927      103.241 
0.000554394     0.265801      106.390 
0.000553946     0.767349      94.4846 
0.000157964     0.247386      104.036 
7.79517e-05     0.527565      104.826 
0.000230555     0.226991      97.5946 
0.000737627     0.768668      95.5993 
7.54601e-05     0.538540      102.875 
0.000149592     0.210535      94.0856 
7.38694e-05     0.148492      45.0000 
0.000349800     0.542079      104.421 
7.31763e-05     0.150000      36.8699 
0.000143867     0.147733      23.9625 
7.08058e-05     0.156605      16.6992 
0.000343822     0.152971      11.3099 
0.000138566     0.874643      112.166 
0.000202036     0.880412      113.070 
0.000261440     0.782304      94.3987 
0.000263482     0.150748      5.71059 
0.000130290     0.498623      74.2914 
0.000130912     0.886397      113.962 
0.000315143     0.906228      114.444 
0.000253832     0.150000      0.00000 
6.41672e-05     0.546008      105.945 
0.000124526     0.502892      72.6460 
0.000361313     0.781297      93.3019 
0.000305945      1.15041      112.218 
0.000184320     0.165000      0.00000 
0.000178607     0.550318      107.447 
0.000567545     0.498623      68.8387 
0.000349831     0.912538      115.301 
0.000237855     0.150748     -5.71059 
0.000117789     0.323110      111.801 
0.000984413      1.17000      112.620 
0.000347368     0.154434     -150.945 
0.000226080     0.165680     -5.19443 
0.000535422     0.765588      92.2457 
0.000272993     0.152971     -11.3099 
5.66894e-05     0.328976      114.228 
5.58776e-05     0.555000      108.925 
0.00107690     0.141510     -147.995 
0.000419556     0.932537      115.741 
0.000108565     0.348891      115.463 
0.000306045     0.569210      108.435 
0.000540178     0.496588      64.9831 
0.000353722     0.167705     -10.3048 
0.000103418     0.368951      116.565 
0.000193081     0.156605     -16.6992 
0.000192707     0.750600      92.2906 
9.92909e-05      1.17585      113.295 
0.000191936     0.375899      118.610 
0.000814044      1.18964      113.009 
9.70857e-05     0.939149      116.565 
0.000140659     0.952589      116.162 
0.000181386     0.214767      12.0948 
0.000393655     0.750150      91.1458 
0.000355217     0.147733     -23.9625 
0.000181762     0.583459      107.969 
0.000263967     0.959297      116.966 
0.000217031     0.396295      119.476 
0.000642894     0.496815      61.1134 
4.44195e-05     0.503115      63.4349 
0.000126968     0.588260      109.359 
0.000123482     0.127279     -135.000 
0.000159512     0.226991      7.59464 
0.000123981     0.972690      116.565 
0.000201266     0.141510     -32.0054 
8.25734e-05     0.229456      11.3099 
0.000162494      1.19559      113.671 
0.000198237     0.735153      91.1691 
0.000480826     0.403887      121.329 
0.000270698     0.602433      108.886 
0.000379833     0.979490      117.350 
4.02028e-05     0.161555     -21.8014 
0.000453294      1.20934      113.385 
3.98063e-05     0.597746      107.526 
0.000439791     0.364966     -99.4623 
0.000368166     0.154434     -29.0546 
0.000594131     0.735000      90.0000 
0.000181214     0.244182      10.6197 
3.59367e-05     0.992837      116.952 
0.000517495     0.499299      57.2648 
0.000169312      3.09277      108.083 
0.000304489      1.22312      113.106 
0.000512406     0.999725      117.719 
6.86118e-05      3.11170      108.260 
0.000100557     0.241868      7.12502 
0.000222324     0.616644      108.435 
0.000883399     0.367730     -101.768 
6.66844e-05      3.26353      108.768 
0.000177499     0.720000      90.0000 
0.000139082     0.615000      90.0000 
0.000270838     0.411886      123.111 
0.000248829      3.27773      108.684 
0.000183000     0.256759      6.70984 
0.000241908      1.22908      113.749 
9.32079e-05      3.07387      107.904 
0.000227111      1.01303      117.324 
0.000144242      1.24283      113.471 
0.000116901      3.05960      107.991 
0.000471437     0.495227      54.8658 
0.000315500     0.621550      109.747 
0.000268619     0.630000      90.0000 
0.000350593      3.29676      108.847 
0.000315765     0.167705     -26.5651 
8.48903e-05      1.25660      113.199 
0.000105141     0.271662      6.34019 
5.55341e-05      3.05500      107.723 
2.75342e-05     0.273724      9.46232 
0.000834543      1.65477      134.265 
0.000305995      3.04071      107.809 
0.000725525      3.83607      101.046 
0.000345236     0.432666      123.690 
2.67236e-05      1.20169      114.326 
0.000141462      1.00679      118.474 
2.63742e-05      1.29809      112.416 
2.63405e-05     0.720156      88.8065 
7.50494e-05      1.16083      115.241 
0.000151833      1.75570      109.983 
0.000212420     0.993630      118.887 
7.65018e-05      1.17441      114.928 
0.000146795     0.735153      88.8309 
2.52639e-05      1.32034      111.318 
7.42777e-05     0.996005      127.042 
0.000209329     0.615183      88.6028 
4.91003e-05      1.32900      110.480 
0.000307490      3.31096      108.763 
2.42741e-05      1.02000      118.072 
6.95812e-05     0.270416      3.17983 
0.000206213      1.00511      127.725 
0.000156060     0.750150      88.8542 
2.40051e-05      1.14728      115.560 
4.75914e-05      1.34307      110.256 
0.000185114      1.77495      110.273 
0.000182208      3.02186      107.625 
4.52639e-05     0.189737     -18.4349 
0.000213515     0.607454      110.225 
0.000132321     0.175570     -19.9831 
2.31270e-05      1.33795      109.654 
0.000171237     0.492037      52.4314 
6.79603e-05      1.35208      109.440 
6.50292e-05     0.255000      0.00000 
0.000107369      3.02643      107.896 
2.21679e-05      1.20794      114.974 
6.53509e-05      1.34716      108.838 
0.000205792      1.01436      128.395 
0.000203177      1.36137      108.635 
0.000101806      1.78020      110.726 
0.000617715      3.00757      107.712 
0.000237882     0.598874      112.068 
0.000135497     0.200125     -12.9946 
3.71819e-05     0.240468     -3.57633 
0.000131331     0.750600      87.7094 
1.98900e-05      1.01702      127.208 
1.99040e-05     0.483037      53.8418 
5.72321e-05     0.270000      0.00000 
0.000147209     0.480234      51.3402 
7.60058e-05      3.31581      109.009 
0.000238847      1.78557      111.176 
0.000199445      1.02616      127.875 
0.000201666      1.37559      108.435 
9.05757e-05      1.78922      124.756 
0.000240781      2.31044      113.736 
0.000617502     0.371079     -104.036 
0.000346463      1.00096      119.638 
3.64489e-05     0.445225      122.619 
5.25856e-05     0.765588      87.7543 
0.000489149     0.226991     -7.59464 
0.000245502      3.33000      108.925 
0.000174853      2.31652      114.075 
0.000903638      3.83323      100.826 
5.15992e-05     0.645174      88.6678 
0.000122561     0.453486      124.216 
0.000167178      3.04766      114.421 
0.000101142      1.37092      107.840 
0.000150026      2.58614      110.011 
0.000113222     0.468615      50.1944 
0.000345286      4.41227      111.331 
0.000109673     0.987952      120.069 
9.43273e-05      1.79781      125.149 
3.31989e-05      1.02374      129.053 
4.90831e-05      1.38983      108.239 
0.000236458      4.43171      111.441 
9.79941e-05     0.585000      112.620 
3.20362e-05      1.03543      128.530 
4.74498e-05     0.593401      110.726 
1.59515e-05      1.24888      114.102 
0.000464144      1.38521      107.650 
1.58531e-05     0.766322      86.6335 
7.56455e-05      1.79104      111.623 
0.000117203      1.03326      129.699 
7.24074e-05     0.781297      86.6981 
8.52349e-05     0.175570     -160.017 
0.000189628      2.40047      123.789 
0.000233577      2.29068      113.543 
5.94095e-05     0.457193      48.9909 
0.000182229     0.645000      90.0000 
2.93305e-05      1.25508      114.727 
2.93241e-05     0.612066      107.103 
0.000741207      2.98873      107.526 
0.000146802      3.34907      109.084 
2.86046e-05      1.85861      115.324 
4.23047e-05     0.456207      46.3322 
4.18478e-05     0.630179      91.3639 
5.47526e-05      1.86507      115.741 
8.98048e-05      1.26259      113.824 
6.41767e-05     0.796273      86.7603 
0.000129252     0.445477      45.0000 
4.64304e-05     0.626598      101.041 
0.000211619      1.64433      133.891 
0.000169141      1.04290      130.333 
3.94411e-05     0.618466      104.036 
0.000314269      4.41625      108.004 
7.70566e-05      1.87164      116.154 
0.000190742      3.06132      114.305 
0.000105427     0.189737     -161.565 
1.28171e-05      1.76981      109.817 
0.000196439      2.39216      123.491 
6.86928e-05     0.450000      126.870 
3.63657e-05      2.55692      109.179 
2.44290e-05      1.77894      109.199 
5.58332e-05     0.629643      102.381 
4.82052e-05      1.87830      116.565 
1.21185e-05     0.622274      105.376 
8.60541e-05      3.35400      109.326 
1.20770e-05      1.85157      115.942 
8.00426e-05     0.435000      43.6028 
3.51767e-05      2.42226      128.715 
0.000140768      2.26505      112.999 
7.81730e-05     0.811249      86.8202 
4.61240e-05      1.85818      116.358 
2.28762e-05      1.77406      108.741 
5.61460e-05     0.995553      120.816 
1.15618e-05      1.27040      112.932 
3.29576e-05     0.435000      46.3972 
9.59937e-05      2.43167      128.991 
0.000190776      5.25174      107.452 
3.34136e-05      2.55203      108.861 
1.12773e-05     0.577256      114.567 
0.000143894      1.86489      116.771 
0.000126672      5.26605      107.403 
1.11693e-05      1.26757      110.794 
3.29780e-05      1.88505      116.973 
0.000257447      1.39951      107.464 
9.59143e-05     0.447493      129.560 
2.17313e-05      1.26463      112.306 
4.04896e-05     0.645174      91.3322 
5.04241e-05     0.255441     -3.36646 
1.08568e-05      1.78355      108.130 
0.000217548      1.05438      129.806 
0.000118020      1.00332      121.551 
5.09585e-05      2.52825      108.327 
4.95989e-05      1.77894      107.671 
0.000246075     0.424264      45.0000 
6.75475e-05      1.27138      109.290 
3.06344e-05      1.41835      107.860 
3.97858e-05     0.167705     -153.435 
4.89904e-05     0.827179      85.8404 
4.00013e-05      4.43721      111.622 
1.01880e-05      1.26232      110.158 
3.92433e-05      4.42592      107.759 
0.000245314      5.26158      107.247 
3.80806e-05      1.89190      117.378 
9.89597e-06     0.826226      86.8779 
0.000209845      2.44113      129.265 
9.84634e-06     0.556821      117.255 
2.92332e-05      4.41163      107.819 
0.000298008      5.70404      101.221 
6.14304e-05     0.638690      99.4623 
0.000200828      1.63397      133.512 
9.18541e-05      4.46146      117.427 
4.47452e-05      2.52357      108.004 
7.21517e-05      4.42136      107.574 
9.30210e-06     0.645697      92.6630 
0.000236716      1.87170      117.181 
9.29193e-06      1.12969      79.2869 
0.000106664      4.45116      111.550 
3.57100e-05     0.636396      98.1301 
9.16493e-06      3.35900      109.568 
9.13698e-06     0.869612      75.0049 
5.07551e-05     0.181246     -155.556 
0.000150755      1.11496      79.1436 
0.000295429      3.81569      100.647 
2.59916e-05      1.77444      107.210 
4.27603e-05      1.01125      122.276 
3.45040e-05     0.873613      74.0546 
0.000169836      3.06753      114.560 
5.17500e-05      1.05268      130.956 
8.76012e-06     0.543530      117.979 
8.75931e-05      1.26650      108.650 
1.64082e-05      3.37817      109.722 
4.23584e-05      4.57665      104.036 
0.000116620      2.38391      123.190 
2.49409e-05      4.41686      107.389 
3.97671e-05     0.456207      133.668 
3.21311e-05     0.212132     -8.13010 
3.10254e-05     0.457193      131.009 
8.30614e-06     0.649346      96.6325 
2.29112e-05     0.641327      100.784 
8.20577e-06     0.530330      118.740 
0.000327450      4.57303      103.854 
6.09076e-05     0.877852      73.1132 
5.96743e-05      2.25923      112.649 
3.11937e-05      1.00679      123.453 
1.58786e-05      1.77006      106.746 
0.000148426     0.356546     -104.621 
8.87382e-05      2.98425      107.251 
0.000131016      1.01514      124.160 
3.11644e-05      4.41240      107.203 
7.98416e-06     0.360000      0.00000 
1.55867e-05     0.651249      97.9435 
2.28706e-05      2.50014      107.457 
0.000161576     0.424794      47.8624 
2.75631e-05     0.524786      120.964 
2.22705e-05     0.653491      99.2461 
2.16348e-05     0.162250     -146.310 
7.50072e-06      1.76012      107.354 
2.20239e-05      4.41798      106.774 
1.44607e-05     0.345000      180.000 
1.34102e-05     0.511981      121.827 
2.07665e-05      1.81010      124.875 
7.31770e-06     0.390288     -2.20260 
2.81846e-05      1.76580      106.280 
4.01210e-05      5.51584      103.205 
1.38417e-05      3.38326      109.961 
6.42411e-05      4.48169      117.508 
1.38705e-05     0.197294     -8.74616 
2.08149e-05      4.41367      106.587 
2.06791e-05      1.26178      108.004 
9.54529e-05      1.89885      117.780 
3.43714e-05     0.656068      100.539 
5.08635e-05      4.46511      111.480 
-2.63046e-05      5.05206      113.444 
2.04889e-05      1.87860      117.588 
6.98549e-06     0.405278     -2.12110 
1.36378e-05     0.466690      135.000 
4.51775e-05      2.49569      107.128 
5.71856e-05     0.882326      72.1811 
0.000237660      2.36315      123.085 
-8.46014e-05      5.06583      113.377 
2.59984e-05      1.27606      107.796 
2.62386e-05     0.375300      177.709 
2.62526e-05      1.06257      131.566 
1.94791e-05      1.75570      106.887 
2.60625e-05      3.05389      114.677 
6.66815e-05      4.58760      103.809 
6.63994e-06     0.420268     -2.04541 
6.35322e-05      3.49410      97.3996 
2.57500e-05      4.42380      106.346 
2.55492e-05      1.76165      105.811 
6.60548e-06      1.38073      107.057 
5.39826e-05      1.36640      107.241 
7.17471e-05     0.413793      46.4688 
6.34560e-06      3.10105      114.582 
3.63453e-05      1.06151      132.709 
2.96248e-05     0.159452     -138.814 
0.000152857      3.80095      100.689 
1.80684e-05     0.435259     -1.97493 
8.71374e-05      1.02758      123.690 
1.80877e-05     0.390288      177.797 
6.18570e-06      3.11469      114.467 
6.76044e-05      5.51243      103.053 
-0.000636177      5.13476      113.045 
6.13904e-06      2.45276      129.043 
2.92738e-05      4.43402      106.105 
6.12905e-06      3.04027      114.795 
3.51841e-05      1.75763      105.341 
5.04459e-05      1.81872      125.263 
6.05796e-06      3.02666      114.914 
0.000216499      3.49220      97.1555 
1.76782e-05      2.45065      129.536 
1.18953e-05      3.14821      114.489 
5.92977e-06      2.47695      106.899 
5.92274e-06      3.01306      115.034 
0.000250752      1.61276      133.493 
1.12069e-05      1.12700      80.0362 
5.84639e-06     0.520048      123.232 
3.99294e-05      5.23743      107.501 
5.42710e-05      2.47264      106.566 
2.77616e-05      3.16809      114.624 
0.000101897      1.90589      118.179 
5.80909e-05      4.50192      117.590 
3.80221e-05     0.887032      71.2587 
5.74978e-06      2.99947      115.155 
5.34632e-05      2.35810      138.094 
2.22554e-05     0.421070      175.914 
3.31127e-05      1.06087      133.854 
0.000113840      2.96992      107.337 
0.000104791      1.75372      104.868 
2.21079e-05      2.98590      115.278 
1.65382e-05     0.465967     -3.69139 
1.50848e-05      1.11223      79.9025 
7.77484e-05     0.414879      49.3987 
1.08432e-05     0.532658      122.347 
4.63734e-05      1.33331      107.008 
2.99977e-05      5.32456      106.699 
1.08682e-05      1.02363      124.854 
4.25979e-05      5.22767      107.707 
3.56670e-05     0.148492     -135.000 
5.44375e-06      4.44431      105.866 
-0.000315489     0.655210     -74.0546 
2.07017e-05      4.48457      111.588 
4.47749e-05      2.46224      129.314 
6.29203e-05      5.33893      106.653 
0.000169053      5.70698      101.369 
3.47613e-05      4.48357      105.524 
1.05244e-05      2.97235      115.401 
5.08370e-05      1.03598      124.380 
3.03367e-05     0.480937     -3.57633 
3.06915e-05      1.05011      134.421 
-3.39737e-05      5.03830      113.512 
2.02122e-05     0.436033      176.055 
1.94226e-05      1.31898      107.199 
1.96232e-05      3.41292      110.586 
3.94287e-05      2.97881      115.662 
0.000101248      5.35330      106.607 
1.47211e-05      2.34696      137.849 
2.49911e-05      5.21338      107.757 
2.70250e-05     0.545390      121.504 
1.43787e-05      3.18799      114.756 
9.69554e-06     0.883091      69.1022 
4.95809e-06      1.03228      125.538 
9.81605e-06      2.45400      106.330 
3.63870e-05     0.891964      70.3462 
4.89897e-06     0.480234      141.340 
0.000165663      2.33692      138.122 
1.44753e-05      1.06066      135.000 
5.10782e-05      5.21797      107.914 
5.36342e-05      1.74993      104.394 
5.06136e-05      1.04452      125.059 
2.78452e-05     0.403609      48.0128 
9.44904e-06      4.49011      111.766 
2.75992e-05      2.44983      105.994 
3.65586e-05      3.80376      100.911 
0.000138947     0.497041     -5.19443 
4.36239e-05      4.52217      117.670 
5.66631e-05      1.05011      135.579 
1.82023e-05     0.450999      176.186 
2.24971e-05     0.138293     -130.601 
0.000126531      1.30025      106.763 
2.66767e-05      2.96530      115.787 
3.99801e-05      4.49405      105.289 
1.82818e-05      5.50907      102.901 
4.51207e-06      4.50961      111.872 
3.32252e-05      1.31462      106.574 
2.60425e-05      1.04107      126.209 
8.51270e-06      3.20790      114.887 
7.04000e-05      4.23866      113.571 
0.000104432      5.20370      107.965 
0.000104734     0.405278      51.0090 
1.32170e-05      5.36767      106.561 
4.41052e-06      3.41822      110.821 
2.11344e-05      2.43130      105.751 
7.26758e-05      1.91301      118.575 
4.48728e-05      5.38634      106.669 
3.98140e-05      3.43759      110.966 
1.26224e-05     0.465967      176.309 
-1.88942e-05      5.02455      113.580 
0.000110186      4.58404      103.627 
5.14978e-05      2.97186      116.048 
2.03574e-05     0.150000     -126.870 
6.12523e-05      2.96549      107.060 
4.20760e-06      3.82503      100.164 
6.31106e-05      1.05321      125.727 
0.000174447      3.50708      97.1250 
4.59146e-05     0.897120      69.4440 
8.25891e-06      3.83214      99.4623 
2.68113e-05      1.83963      125.375 
8.03815e-06      3.84694      99.4256 
1.18691e-05     0.482105      174.644 
7.20578e-05      2.42727      105.410 
4.01921e-06      3.79485      101.399 
4.79450e-05      4.54242      117.750 
1.16272e-05      4.02763      100.515 
7.80481e-06     0.129035     -125.538 
4.78529e-05      1.03966      136.169 
3.92602e-06      4.02492      100.305 
3.49865e-05     0.553376      122.829 
1.14914e-05      3.84451      99.2051 
1.48221e-05     0.949276      95.4403 
2.19176e-05     0.497041      174.806 
7.17083e-05     0.141510     -122.005 
1.11737e-05      5.43807      106.835 
7.17475e-05      2.37138      123.389 
1.80899e-05      4.04238      100.476 
3.71394e-06      3.82053      98.3528 
3.68629e-06      3.80716      102.284 
6.35024e-05      1.06204      126.384 
7.23758e-06      2.95839      116.175 
1.42075e-05      3.81838      98.1301 
0.000136846      5.20835      108.122 
2.73063e-05      3.44298      111.199 
7.07557e-06      5.44244      106.987 
6.98511e-06      2.97847      116.307 
1.71393e-05      1.74317      105.471 
3.54007e-06      2.47177      129.583 
4.23418e-05      2.96503      116.435 
3.16257e-05      1.84835      125.754 
3.49783e-06      3.83161      102.894 
3.55747e-05      1.02933      136.771 
6.87055e-06      4.64589      103.632 
1.63331e-05     0.894231      67.3062 
6.77008e-06      3.83499      103.112 
9.98552e-06      4.50460      105.054 
3.90723e-05     0.965725      96.2419 
3.75853e-05      3.79938      97.7142 
6.27708e-05      2.96112      106.783 
1.32568e-05     0.511981      174.958 
3.16420e-05      4.04514      100.685 
1.23237e-05      2.47386      129.094 
1.28731e-05      5.46117      107.091 
1.76715e-05      3.23420      115.258 
1.31917e-05      4.54943      117.917 
2.81990e-05      1.73922      104.995 
2.84475e-05      4.67858      103.724 
6.54792e-06      2.18758      110.050 
2.12305e-05     0.382426     -101.310 
1.87781e-05     0.902497      68.5523 
3.59111e-05      4.22492      113.653 
5.60416e-05     0.396011      52.6961 
3.26156e-06      3.83842      103.330 
1.79011e-05      1.92023      118.968 
3.19159e-06      4.56269      117.829 
6.33350e-06      2.15838      109.065 
6.07607e-05      3.66666      108.361 
3.77791e-05     0.561649      124.114 
2.89773e-05     0.570789      176.987 
4.93592e-05      4.56971      117.995 
-2.00974e-05      5.01081      113.649 
6.15612e-06      2.15353      108.687 
4.52156e-05      1.01912      137.386 
2.57505e-05      2.97174      116.694 
3.00445e-06      2.11633      106.894 
3.11898e-05      4.55847      103.899 
5.94390e-06      2.11202      106.504 
2.25911e-05      1.07100      127.030 
3.37379e-05      4.69315      103.681 
2.96452e-06      2.34811      138.366 
8.65129e-06      2.07743      104.638 
8.44378e-06      2.98515      116.565 
2.89338e-06      2.08127      105.038 
1.65969e-05      3.79740      97.4900 
1.38149e-05     0.900125      66.4253 
1.37463e-05      4.04794      100.894 
2.72544e-05      2.07369      104.237 
8.19663e-06      4.56002      112.431 
5.50474e-06      5.48438      107.345 
2.43657e-05      5.19879      108.330 
8.12013e-06      2.35060      123.284 
1.07978e-05     0.134164     -116.565 
5.43343e-06      4.56946      103.671 
5.36342e-06      1.92754      119.358 
5.35931e-06     0.397146     -100.886 
5.32128e-06     0.570197      125.362 
1.06190e-05      3.52197      97.0947 
2.67332e-06      1.73540      104.517 
2.66900e-06      2.34240      122.978 
2.64515e-06      2.97851      116.952 
2.62725e-06      4.55489      103.716 
