! Center RA: 12 21 31.69052,  Dec: +28 13 58.50011 (2000.0)
! Established model.
! Flux (Jy) Radius (mas)  Theta (deg)  Major FWHM (mas)  Axial ratio   Phi (deg) T \
! Freq (Hz)     SpecIndex
 0.0241437    0.0200000      90.0000 
 0.0190743    0.0200000      0.00000 
 0.0150319    0.0282843      45.0000 
0.00564848      0.00000      0.00000 
0.00122517     0.280000      90.0000 
 0.0118756     0.260000      90.0000 
0.00236608    0.0447214      63.4349 
0.00708196    0.0721110      56.3099 
0.000417719     0.107703      68.1986 
0.00225284    0.0894427      63.4349 
0.00878776     0.280713      94.0856 
0.00232915    0.0200000      180.000 
0.00991088     0.116619      59.0362 
0.000583293     0.100000      53.1301 
0.00104429     0.300666      93.8141 
0.00309797    0.0447214     -153.435 
0.000250418     0.302655      97.5946 
0.00293114     0.322490      97.1250 
0.00307092    0.0565685     -135.000 
0.00224147     0.345254      100.008 
0.000879981     0.113137      45.0000 
0.00129405     0.368782      102.529 
0.00299399     0.128062      51.3402 
0.000304636    0.0447214     -116.565 
0.00116176     0.388330      101.889 
0.00138349    0.0721110     -123.690 
0.000271923     0.407922      101.310 
0.00288639    0.0632456     -108.435 
0.000133799     0.463897      97.4314 
0.000719232     0.392938      104.744 
0.000702304     0.483735      97.1250 
0.000505484     0.373631      105.524 
0.000594676     0.526118      98.7462 
0.000370446     0.592284      101.689 
0.00220302     0.128062      38.6598 
0.000475004     0.616117      103.134 
0.000227876     0.640312      104.470 
0.000460364     0.506360      99.0903 
0.000443057     0.664831      105.709 
0.000111631     0.412311      104.036 
0.000714445     0.486621      99.4623 
0.000109014     0.398497      107.526 
0.000987608     0.689638      106.858 
0.000697981     0.417612      106.699 
0.000561681     0.714703      107.928 
0.00114570     0.144222      33.6901 
0.000212949    0.0600000     -90.0000 
0.000669854     0.423792      109.290 
0.000199472    0.0632456     -71.5651 
0.000689563     0.740000      108.925 
0.000262336     0.100000     -143.130 
0.000436046    0.0721110     -56.3099 
0.000268000     0.113137     -135.000 
8.16660e-05     0.746726      110.376 
0.000691600     0.772528      111.251 
0.000388287     0.503587      96.8428 
0.000157523     0.152315      23.1986 
0.000755039    0.0848528     -45.0000 
0.000304578     0.128062     -141.340 
0.000852202     0.782304      94.3987 
0.000299788     0.134164     -153.435 
0.000227766     0.161245      29.7449 
0.000349485     0.430813      111.801 
0.000579300     0.500000      73.7398 
0.000550166     0.170880      20.5560 
0.000214030     0.798499      112.068 
0.000470552     0.806226      113.385 
0.000331850     0.505964      71.5651 
0.000329940     0.152315     -156.801 
0.000269283     0.100000     -36.8699 
6.50266e-05     0.803990      95.7106 
6.40231e-05     0.832586      114.102 
6.35260e-05     0.449444      110.854 
7.99544e-05     0.521536      94.3987 
0.000680827     0.784092      95.8560 
0.000156745     0.520384      92.2026 
0.000227645     0.520000      90.0000 
0.000287733     0.520384      87.7974 
0.000140843     0.503587      83.1572 
0.000785938     0.786384      97.3058 
0.000342591     0.178885      63.4349 
0.000205089     0.116619     -30.9638 
0.000452432     0.506360      80.9097 
0.00168230     0.134164     -26.5651 
6.50210e-05     0.538516      105.068 
0.000310338     0.184391      49.3987 
0.000250432     0.789177      98.7462 
0.000309530     0.913893      113.199 
0.000244961     0.544059      107.103 
0.000653121      1.17388      113.070 
0.000353631     0.509902      78.6901 
0.000289391     0.921954      114.341 
0.000115368     0.184391      40.6013 
0.000274988     0.550273      109.093 
0.000114360     0.304631      113.199 
0.000836805      1.19231      112.694 
5.57511e-05     0.188680      32.0054 
0.000268027     0.764199      96.0090 
0.000318431     0.340000      118.072 
0.000216211     0.948472      114.944 
0.000160727     0.205913      29.0546 
0.000623894     0.957079      116.030 
0.000347247     0.493964      68.6294 
0.000248141     0.215407      21.8014 
0.000385095     0.762365      94.5140 
0.000286140     0.557136      111.038 
0.000194861     0.367151      119.358 
0.000347399     0.128062     -38.6598 
9.71601e-05     0.152315     -23.1986 
0.000964453      1.20017      113.575 
0.00135144     0.144222     -33.6901 
0.000516898     0.491935      63.4349 
0.000225733     0.228035      15.2551 
0.000888287     0.377359      122.005 
0.000531503     0.761052      93.0128 
8.58871e-05     0.569210      108.435 
0.000371711     0.966023      117.096 
0.000125618     0.223607      10.3048 
0.000224933     0.575847      110.323 
0.000442261     0.243310      9.46232 
0.00112444     0.364966     -99.4623 
0.000868528      1.21852      113.199 
0.000152586     0.983870      116.565 
0.000660655     0.493964      58.2405 
0.000506454     0.760263      91.5074 
0.000625505     0.992975      117.597 
0.000143284      3.09903      108.435 
0.000297564      3.09277      108.083 
0.000360063     0.404969      122.905 
6.40748e-05     0.975295      118.142 
0.000325574     0.263059      8.74616 
0.000200881     0.581378      93.9452 
3.12738e-05     0.588218      107.819 
0.000263287      3.07376      108.199 
0.000481655     0.760000      90.0000 
0.000232058      3.29515      108.765 
0.000480046     0.500000      53.1301 
0.000588834     0.416173      125.218 
0.000256896      1.22654      114.057 
2.96313e-05     0.594643      109.654 
0.000539154      1.00240      118.610 
0.000166341     0.583095      112.166 
0.000619482      1.65469      134.510 
2.79471e-05     0.580345      91.9749 
0.000679875      3.32054      108.981 
0.000184677      3.83213      101.134 
0.000182370      1.20830      114.444 
2.71265e-05      3.06757      107.844 
0.000416548      3.04854      107.959 
0.000347745     0.601332      93.8141 
7.56301e-05     0.282843      8.13010 
5.12214e-05      1.77200      110.480 
2.50841e-05     0.601664      111.448 
0.000262666      1.79778      110.854 
0.000166547      1.19013      114.842 
0.00134335      3.82832      100.840 
7.21192e-05     0.602993      95.7106 
2.41878e-05     0.260768      4.39871 
7.08408e-05      1.33462      109.250 
2.35989e-05     0.280713      4.08562 
0.000353412     0.368782     -102.529 
9.18027e-05      1.01213      127.776 
0.000170149     0.590931      113.962 
6.83297e-05     0.260000      0.00000 
0.000230783     0.760263      88.4926 
0.000195800      1.35351      108.970 
8.89461e-05     0.496790      49.8991 
0.000307791      1.02450      128.660 
0.000685909      3.02338      107.716 
0.000556551     0.994786      120.174 
0.000444308     0.240832     -4.76364 
0.000351413      1.80499      111.448 
0.000286574     0.484149      51.7098 
8.20663e-05      1.79744      124.574 
0.000215488      1.37244      108.699 
9.10743e-05     0.100000     -126.870 
0.000465636     0.572713      114.775 
1.96803e-05      1.21672      115.301 
1.96413e-05     0.113137     -45.0000 
1.91527e-05     0.781025      87.0643 
0.000255359     0.223607     -10.3048 
0.000341291      1.80887      125.096 
1.88066e-05      2.58194      110.400 
0.000283450      2.57503      109.983 
0.000221377      1.03711      129.523 
0.000121701     0.621289      93.6914 
0.000558430      1.36616      107.904 
0.000150375     0.761052      86.9872 
1.82792e-05      1.34715      108.166 
0.000400644      1.64073      134.012 
0.000326907      2.29268      113.658 
8.36761e-05     0.170880     -159.444 
0.000145892      1.81240      112.036 
4.99894e-05     0.428019      127.405 
0.000323593      3.34598      109.193 
0.000334343      4.42705      111.465 
8.01016e-05     0.481664      48.3665 
0.000152103     0.622896      95.5275 
0.000314388      4.41977      111.224 
0.000610957     0.349285     -103.241 
0.000539594      2.39633      123.425 
1.53274e-05      1.23483      114.905 
8.88295e-05     0.466905      46.7357 
8.26059e-05      3.07044      114.228 
0.000141941      1.04995      130.365 
0.000532741      3.00433      107.832 
0.000109470     0.223607     -169.695 
0.000328474      2.25850      112.932 
0.000106407     0.782304      85.6013 
4.23177e-05      1.25300      114.520 
0.000375180     0.642806      95.3558 
8.16172e-05     0.452548      45.0000 
4.97335e-05     0.425206      131.186 
2.57080e-05      1.24483      113.682 
2.58124e-05      1.79075      110.256 
6.37277e-05      4.39568      108.023 
0.000401319      1.06301      131.186 
0.000316891     0.438634      43.1524 
7.39322e-05      2.41305      123.163 
6.04808e-05      1.28390      108.153 
3.77350e-05      1.38521      107.650 
1.28031e-05      1.83576      113.772 
6.06203e-05      2.41760      128.956 
1.24592e-05      1.84391      114.341 
0.000138812     0.260768     -4.39871 
1.23572e-05      1.85224      114.905 
4.85318e-05      4.41470      107.942 
3.49481e-05     0.189737     -161.565 
0.000135650      3.09690      114.413 
1.22299e-05      1.77730      109.047 
1.22067e-05      1.27138      109.290 
3.61547e-05      1.86075      115.463 
6.95970e-05      3.08869      114.075 
9.21493e-05      1.41039      108.178 
0.000238258      1.08259      78.2749 
0.000249512      1.26491      108.435 
2.36745e-05      2.54275      109.290 
8.78945e-05     0.644981      97.1250 
2.33954e-05      1.78370      107.622 
0.000109358      1.00499      121.159 
0.000213800      4.40858      107.695 
3.39072e-05      3.37147      109.402 
6.82185e-05      1.86944      116.017 
0.000585249      5.25681      107.263 
6.19662e-05     0.243310     -170.538 
0.000613244      3.82460      100.546 
0.000196399      2.43023      129.323 
3.11786e-05     0.625140      97.3524 
8.40284e-05      2.53622      108.864 
4.35958e-05      1.77775      107.008 
0.000182995     0.424264      135.000 
0.000181659      1.87830      116.565 
0.000119421      3.11512      114.261 
8.02841e-05      1.42941      107.928 
5.81367e-05      4.43680      117.374 
3.92665e-05      1.77200      106.390 
1.02675e-05      3.35261      109.516 
1.01631e-05    0.0824621     -104.036 
0.000211964      5.70701      101.113 
0.000186370      2.99827      107.468 
3.88208e-05      1.01548      122.125 
0.000100698      4.55969      104.219 
1.86748e-05      3.37817      109.722 
9.34741e-05      4.45300      111.610 
0.000127968     0.998599      122.735 
4.51945e-05      4.40254      107.447 
0.000102889      3.72543      138.264 
9.24597e-06     0.855102      79.2157 
0.000136153      1.88733      117.108 
0.000241564      1.40428      107.403 
5.94898e-05      2.52982      108.435 
0.000281317     0.438634      46.8476 
3.37161e-05    0.0800000     -90.0000 
9.06748e-06     0.859069      77.9052 
2.60865e-05      1.76647      105.767 
4.90963e-05     0.263059     -171.254 
0.000107392      4.46377      117.484 
2.53522e-05     0.863481      76.6075 
6.56133e-05      4.41570      107.122 
3.98252e-05      3.38497      110.041 
1.65149e-05     0.340000      0.00000 
4.77865e-05     0.664831      96.9112 
0.000168855      4.55482      103.975 
0.000155885      1.62690      133.506 
0.000179628      1.25873      107.571 
5.82724e-05      2.22468      112.184 
0.000256992      2.97321      107.216 
7.28259e-05     0.868332      75.3236 
3.02785e-05      1.76114      105.141 
1.54223e-05     0.360000      0.00000 
9.30025e-05      3.74037      138.468 
6.85480e-05      2.49840      107.710 
0.000310922      1.89652      117.646 
6.53368e-05      4.40985      106.873 
0.000258403      1.00955      123.690 
7.76688e-05      2.44573      129.026 
0.000400401      5.71090      101.310 
0.000122027     0.424264      45.0000 
1.45396e-05      1.07870      79.3151 
0.000283571      3.64560      125.172 
7.38351e-06      3.04237      114.880 
4.24343e-05     0.647765      98.8807 
2.14049e-05    0.0824621     -75.9638 
2.14172e-05     0.438634      136.848 
1.43286e-05     0.380000      0.00000 
3.42318e-05      3.39187      110.358 
4.72317e-05      4.44567      111.371 
2.12836e-05      3.02424      115.040 
1.42833e-05     0.282843     -171.870 
1.41832e-05      1.07629      131.987 
2.66613e-05      3.14159      114.444 
9.21243e-05      1.06151      132.709 
6.90639e-05     0.320624     -176.424 
5.88382e-05      3.86999      141.294 
2.64463e-05      3.00613      115.201 
1.34865e-05      4.54031      104.281 
6.35577e-05     0.651153      100.620 
1.95263e-05     0.400000      0.00000 
6.18718e-05      4.40409      106.624 
5.52003e-05      1.09836      79.5085 
6.61065e-06      4.53100      104.834 
0.000165101      3.66197      124.992 
8.25360e-05     0.873613      74.0546 
0.000105056      4.51686      105.144 
6.51533e-06     0.438634      133.152 
0.000228325      2.45837      129.388 
7.14878e-05      3.46803      97.2890 
4.24723e-05      2.98804      115.364 
1.20721e-05      1.75602      104.511 
1.83386e-05      3.15981      114.294 
0.000182602      2.36863      123.288 
0.000322071      3.85751      141.526 
8.78448e-05      2.49239      107.272 
0.000105331      3.75537      138.671 
6.07703e-06     0.452548      135.000 
1.77550e-05     0.440454     -2.60256 
3.82339e-05      4.47160      111.516 
0.000123908      5.52105      102.979 
6.21085e-05      3.18628      114.474 
7.60034e-05     0.655134      102.339 
2.63295e-05      2.21721      111.705 
1.13916e-05      2.99666      115.710 
0.000116571      4.49075      117.592 
1.09766e-05      3.39888      110.674 
3.27297e-05     0.340588     -176.634 
2.68333e-05     0.460435     -2.48955 
7.68288e-05      3.48786      97.2473 
1.11213e-05      2.96998      115.530 
3.20856e-05      5.24370      107.537 
6.34977e-05      4.50284      105.456 
2.07480e-05      1.75111      103.878 
3.53355e-05      4.39841      106.375 
7.08685e-05      2.97866      115.877 
7.67037e-05      1.07517      133.493 
1.52566e-05      1.27781      107.301 
0.000109770      4.56946      103.671 
2.52032e-05     0.354401     -106.390 
7.71926e-05      1.36015      107.103 
5.15726e-06     0.360000      180.000 
0.000106148     0.879318      72.8015 
6.44078e-05     0.380000      180.000 
9.86859e-05      5.22463      107.603 
5.20134e-05      1.83674      125.248 
9.86178e-06     0.480416     -2.38594 
2.84563e-05     0.659697      104.036 
8.13500e-05      2.38537      123.024 
6.70927e-05      4.22810      113.412 
9.56012e-06      3.80867      100.897 
0.000187158      3.81560      97.8328 
0.000148863     0.521536     -4.39871 
1.86767e-05      2.94822      106.960 
4.33225e-05      3.40599      110.989 
2.26796e-05     0.679117      103.627 
0.000198333     0.425206      48.8141 
0.000128346     0.335261     -107.354 
4.71258e-06      3.81838      98.1301 
4.38752e-05      3.81251      101.192 
0.000179822      2.96068      116.046 
4.35296e-05      3.46554      96.9610 
5.80309e-05      1.73170      104.036 
1.78334e-05      4.22019      113.163 
8.94899e-06      5.28337      106.720 
0.000151661      2.94245      106.587 
1.28641e-05      2.20989      111.224 
0.000125685      1.02078      124.624 
8.05488e-05     0.684105      105.255 
2.08801e-05      4.17138      110.781 
3.55529e-05      1.34104      107.354 
0.000124810      1.30292      107.879 
1.19199e-05      1.11803      79.6952 
8.57863e-05      1.06075      134.236 
2.07665e-05      3.21279      114.651 
4.96942e-05      5.29683      106.451 
4.14654e-05     0.400500      177.138 
2.34890e-05      3.81644      101.487 
4.85324e-05      3.48540      96.9211 
0.000105135      4.58423      103.369 
3.29595e-05      2.17697      110.433 
3.64994e-05      4.16432      110.524 
8.78314e-05      5.20557      107.669 
7.55370e-05      3.43185      111.181 
1.05436e-05      2.46163      106.521 
0.000100561      4.51774      117.699 
5.60384e-05      1.97960      119.673 
4.55339e-05      1.32197      107.613 
1.45954e-05      3.82047      101.781 
3.84158e-05      4.49755      105.210 
8.56513e-05      3.67347      125.248 
2.94876e-05      4.20181      113.270 
1.38054e-05      3.82460      102.074 
5.26377e-05      1.30231      79.3803 
4.42678e-05      2.35771      122.881 
4.96584e-05      3.46318      96.6325 
2.55751e-05     0.441814      174.806 
3.90743e-05     0.885438      71.5651 
9.82853e-06      4.15736      110.266 
9.91869e-06      3.82884      102.366 
2.93525e-05      2.17007      109.938 
6.42740e-05      4.64724      103.438 
1.57251e-05      3.83317      102.659 
4.56761e-05      4.13168      110.102 
8.65403e-06      2.45601      106.074 
3.04542e-06     0.556058      52.3058 
3.30235e-05      3.83760      102.950 
3.01615e-06      2.94272      116.217 
2.15022e-05      1.61320      132.990 
1.41481e-05      3.77041      138.871 
1.91762e-05      1.86462      125.395 
3.04980e-05      2.47111      129.746 
3.81414e-05      1.06075      135.764 
1.11066e-05     0.568507      50.7106 
5.31466e-05      2.96951      116.392 
2.95063e-06     0.463897      172.569 
2.44230e-05      4.20975      113.520 
5.75780e-06     0.466905      170.134 
4.02076e-05      5.18652      107.736 
4.90944e-05      4.56478      103.427 
4.40589e-05      3.48304      96.5945 
1.88469e-05     0.519230      164.358 
2.78751e-06    0.0894427     -116.565 
2.78030e-06     0.490306      168.232 
3.62680e-05      3.84213      103.241 
1.60165e-05      3.43913      111.492 
2.73236e-06      1.13772      79.8753 
5.23070e-06      3.87572      104.036 
1.52624e-05      3.23932      114.825 
-9.76114e-05      3.56634      102.633 
2.60114e-06      2.47386      129.094 
1.01272e-05      2.16333      109.440 
6.73976e-05      3.79579      97.8739 
1.24369e-05      2.48652      129.452 
1.00787e-05      2.37453      122.619 
1.74345e-05     0.544059      162.897 
1.23699e-05      1.98957      120.174 
7.46161e-06     0.873155      69.9048 
1.22227e-05      5.19954      107.459 
4.86977e-06     0.695701      108.435 
4.87295e-06      1.04690      136.548 
1.21614e-05      1.30920      108.712 
4.87292e-06     0.576888      123.690 
4.87198e-06      2.13138      108.605 
4.82705e-06      3.26588      114.996 
2.42531e-06      1.28265      79.2157 
! Tentative model.
! Flux (Jy) Radius (mas)  Theta (deg)  Major FWHM (mas)  Axial ratio   Phi (deg) T \
! Freq (Hz)     SpecIndex
0.000134797      8.30780      110.136 
0.000170857      8.31471      110.266 
3.15781e-05      8.32658      110.089 
9.71643e-06      8.31974      109.960 
1.83550e-05      8.32500      109.654 
8.51305e-05      8.32166      110.395 
8.71926e-06      8.33715      109.478 
1.66208e-05      8.35600      109.432 
8.01911e-05      8.37487      109.387 
0.000110005      8.32865      110.524 
0.000102547      4.11330      99.2333 
6.82658e-05      3.69908      111.571 
7.95508e-05      3.67347      125.248 
1.19234e-05      3.23932      114.825 
2.29255e-05      8.36825      109.258 
5.93352e-05      3.28956      97.6867 
3.83190e-05      3.22118      114.974 
3.79630e-05    0.0600000     -90.0000 
6.40677e-05      4.64724      103.438 
4.21482e-05      1.11803      79.6952 
5.48342e-06      1.73170      104.036 
2.10313e-05      1.87883      117.929 
2.58694e-05      3.85751      141.526 
3.62275e-05      1.36015      107.103 
5.37296e-06      1.83674      125.248 
1.53576e-05     0.568507      50.7106 
1.02583e-05     0.425206      48.8141 
5.14390e-06      8.29277      109.440 
5.13949e-06      1.61320      132.990 
5.11543e-06      3.77041      138.871 
1.00793e-05      4.11655      99.5081 
5.04626e-06      3.19462      114.800 
