! Center RA: 12 21 31.69052,  Dec: +28 13 58.50011 (2000.0)
! Established model.
! Flux (Jy) Radius (mas)  Theta (deg)  Major FWHM (mas)  Axial ratio   Phi (deg) T \
! Freq (Hz)     SpecIndex
 0.0191514    0.0874643     -30.9638 
 0.0262308    0.0750000     -36.8699 
 0.0152897    0.0670820     -26.5651 
0.00122518     0.181246      65.5560 
0.00119715     0.167705      63.4349 
0.00117032     0.138293      49.3987 
0.00226947     0.195000      67.3801 
 0.0185747     0.106066      45.0000 
0.00411243     0.208926      68.9625 
0.00136639     0.117154      50.1944 
0.00726459    0.0960469     -38.6598 
0.00281868     0.218403      74.0546 
0.000875234     0.222991      70.3462 
0.00795177     0.232863      75.0686 
0.00747453     0.106066     -45.0000 
0.00517854     0.117154      39.8056 
0.00464739     0.247386      75.9638 
0.00254380     0.244182      79.3803 
0.00491327     0.127279     -45.0000 
0.00156379     0.285394      86.9872 
0.000484480     0.345326      92.4896 
0.000463909     0.361248      94.7636 
0.00225960     0.127279      45.0000 
0.00210982     0.376198      94.5739 
0.00671705     0.138293     -49.3987 
0.00244561     0.391152      94.3987 
0.00113023     0.621550      98.3257 
0.00506521     0.619556      96.9530 
0.00192519     0.406110      94.2364 
0.00165258    0.0960469      51.3402 
0.000707262     0.229456      78.6901 
0.000241983     0.762053      100.204 
0.00184335     0.405278      92.1211 
0.000461439     0.764853      101.310 
0.00225207     0.169706     -45.0000 
0.00153494     0.602993      95.7106 
0.000222137    0.0474342      71.5651 
0.000646717     0.779567      101.094 
0.00113702     0.782592      102.171 
0.000580679    0.0450000      90.0000 
0.000568078     0.604669      97.1250 
0.000824146     0.241868      82.8750 
0.000351435     0.588069      95.8560 
0.000347581     0.420268      92.0454 
0.00114974      2.31044      103.134 
0.000503669    0.0335410      116.565 
0.00198428     0.190919     -45.0000 
0.000953802     0.797261      101.944 
0.000642539      2.72406      106.639 
0.00140998     0.150000      36.8699 
0.000920524      2.32505      103.050 
0.000153845     0.649865      108.853 
0.000149835     0.586728      94.3987 
0.000421273    0.0335410      153.435 
0.000668887      2.72839      106.941 
0.000146007     0.668973      109.654 
0.000285596      2.70083      102.184 
0.000782515     0.585769      92.9357 
0.000667897     0.800500      102.995 
0.000402736     0.674166      110.854 
0.000268194      2.69771      101.872 
0.000882473      2.48462      111.609 
0.000262342      2.42425      102.144 
0.000503570      1.03195      122.535 
0.000253493      2.71239      101.807 
0.000247427      2.15108      105.781 
0.000122338    0.0300000      180.000 
0.000357288      2.70936      101.497 
0.000353146     0.815123      102.758 
0.000121055     0.222991     -42.2737 
0.000235989      1.04010      123.232 
0.000118549      2.14080      106.276 
0.000117688      2.43892      102.070 
0.000116319     0.570789      93.0128 
0.000115053     0.665770      112.521 
! Tentative model.
! Flux (Jy) Radius (mas)  Theta (deg)  Major FWHM (mas)  Axial ratio   Phi (deg) T \
! Freq (Hz)     SpecIndex
0.000418264      2.50140      106.370 
0.000397150      2.68496      103.570 
0.000201185     0.738664      102.907 
0.000397682      2.52004      106.601 
0.000199340     0.181246      65.5560 
0.000394017      1.05396      114.376 
0.000195280     0.167705      63.4349 
0.000903570     0.720781      102.011 
0.000190716      2.38391      105.698 
0.000190025     0.154434      60.9454 
0.000373491      1.08021      115.498 
0.000187903      2.53442      106.504 
0.000367366      2.19154      107.939 
0.000185719     0.150000      53.1301 
0.000364093      2.68148      103.259 
0.000357775     0.286575      83.9910 
0.000526699      1.08675      116.211 
0.000351269     0.138293      49.3987 
0.000177729      2.21518      108.558 
0.000175500      2.45290      109.654 
0.000173548      2.67808      102.947 
0.000172247      2.19621      108.311 
0.000169468      2.69270      102.875 
0.000168776      2.22000      108.925 
0.000331087     0.127279      45.0000 
0.000329862      1.11364      117.255 
0.000166467      2.46315      110.311 
0.000321014     0.288531      81.0274 
0.000164665     0.942258      103.815 
0.000164103      2.56745      106.635 
0.000162317      2.68940      102.563 
0.000161735      2.20097      108.682 
0.000306289     0.717809      100.840 
0.000159533      2.48244      110.516 
0.000873289     0.141510      32.0054 
0.000465096      1.12059      117.937 
0.000157917      2.86700      103.309 
0.000157205     0.953415      102.724 
0.000156950      2.35767      103.241 
0.000155593      2.22991      109.654 
0.000153518     0.688368      101.310 
0.000301137      2.48774      110.839 
0.000152938      2.88160      103.241 
0.000151301    0.0960469     -51.3402 
0.000150868      2.70083      102.184 
0.000150369      2.20582      109.051 
0.000150303     0.570197      91.5074 
0.000234563      1.12770      118.610 
0.000291629      2.89620      103.173 
0.000147644     0.944524      100.061 
0.000146317      2.35428      102.885 
0.000145108      2.23500      110.016 
0.000285252      1.14806      118.909 
0.000544404     0.117154     -50.1944 
0.000280541      1.01613      121.109 
0.000280173      2.49312      111.161 
0.000141995     0.570000      90.0000 
0.000141230      2.08522      105.436 
0.000140669      2.71239      101.807 
0.000273714     0.939747      98.2594 
0.000138487      2.91081      103.105 
0.000137644     0.318198      81.8699 
0.000136710      2.06292      104.744 
0.000264193     0.555203      88.4518 
0.000135730      1.16846      119.197 
0.000135131      2.72406      101.434 
0.000134770      2.26480      110.956 
0.000133150      2.51253      111.357 
0.000379959      1.02396      121.827 
0.000384155      2.92884      103.325 
0.000131805      2.33634      102.609 
0.000260535      1.18889      119.476 
0.000258017      1.96540      102.339 
0.000247793     0.742462      98.1301 
0.000490912      2.51803      111.675 
0.000127126      3.14703      103.506 
0.000126844      1.18841      94.3432 
0.000126593      2.27021      111.309 
0.000469555     0.154434      29.0546 
0.000245153      2.75057      101.004 
0.000363106      1.20934      119.745 
0.000240215     0.333054      82.2348 
0.000123864      1.94758      102.002 
0.000241941      3.16162      103.443 
0.000123451      1.17154      92.9357 
0.000669752      1.01125      122.276 
0.000571351     0.138293     -49.3987 
0.000234888     0.555810      86.9059 
0.000121636      2.27570      111.661 
0.000120796      2.07440      102.529 
0.000120232      1.25400      96.8700 
0.000230190      1.92684      101.222 
0.000536889      1.59318      98.6641 
0.000116337      2.94692      103.541 
0.000115629      2.34466      101.813 
0.000223273      1.15588      92.2312 
0.000222995      2.28128      112.011 
0.000114254      3.17238      104.233 
0.000219331      2.52361      111.991 
0.000312913      2.74774      100.697 
0.000111907      1.20197      119.124 
0.000212291      1.15539      91.4879 
0.000111089      2.90354      104.970 
0.000110281      2.50410      111.801 
0.000214200      2.06810      101.717 
0.000211715     0.541872      85.2364 
0.000215364      3.18693      104.167 
0.000108543      1.22238      119.396 
0.000107816      2.96503      103.755 
0.000208524      1.91213      101.310 
0.000205862     0.346302      85.0303 
0.000105422      2.37104      101.310 
0.000200893      1.24283      119.659 
0.000398296      2.86170      110.240 
0.000104468     0.855132      91.0051 
0.000290815     0.167705      26.5651 
0.000196131      1.14089      118.250 
0.000201311      2.30654      112.563 
0.000439713      3.19785      103.841 
0.000101793     0.169706     -45.0000 
0.000100477      2.96864      104.036 
0.000187391      2.49018      111.930 
9.96965e-05      1.26330      119.914 
0.000195578      2.08279      101.634 
0.00123567     0.159452     -48.8141 
9.86116e-05     0.988863      99.6052 
0.000531947      1.03195      122.535 
9.66784e-05      1.14010      90.7538 
0.000184164      3.35491      102.918 
9.63097e-05     0.543323      83.6598 
0.000270468      2.50971      112.119 
0.000188289     0.300000      36.8699 
0.000346282      1.89743      101.399 
0.000185997      2.39484      100.465 
0.000182645      1.61032      99.1114 
0.000350507      2.31234      112.906 
9.33929e-05     0.723896      95.9469 
9.29122e-05      2.98685      104.246 
9.20482e-05      1.45878      94.1276 
9.18177e-05      3.35159      102.668 
0.000179111      1.27632      119.578 
9.05328e-05     0.361248      85.2364 
9.04782e-05      1.89452      100.954 
9.04255e-05      2.91143      105.540 
0.000259877      1.14000      90.0000 
8.93958e-05      3.20147      104.101 
8.87208e-05      2.88098      110.416 
0.000250962     0.530330      81.8699 
0.000170604      2.40693      100.049 
0.000171994     0.312130      35.2176 
0.000331964      3.32530      107.863 
0.000154313      2.74500      100.389 
8.59212e-05      2.07981      101.229 
8.55023e-05     0.708978      96.0725 
0.000153011      3.63486      103.119 
0.000238655      2.88624      110.695 
0.000364396      1.62755      99.5491 
0.000345206      2.75976      100.333 
8.40060e-05      1.28939      119.249 
8.36376e-05     0.724983      114.444 
0.000321733      3.63830      103.349 
0.000283229      1.44382      94.1704 
0.000235246      1.30250      118.926 
8.15296e-05      2.96154      104.670 
0.000381726      2.09453      101.149 
0.000301041     0.324500      33.6901 
0.000226326      1.14010      89.2462 
0.000154888      2.31822      113.247 
0.00125222      3.96210      103.352 
7.82158e-05      2.86692      110.521 
0.000150171      2.40436      99.6974 
0.000151246     0.731317      115.514 
7.74190e-05     0.161555      21.8014 
7.72708e-05      2.49582      112.249 
7.71845e-05      1.88272      101.489 
7.68075e-05     0.707549      94.8645 
7.61257e-05      2.64221      102.458 
7.59624e-05      3.31266      102.022 
0.000325104      3.96559      103.563 
0.000147009      3.32993      108.108 
7.53119e-05      2.22106      101.689 
0.000145920      1.12190      119.650 
0.000206572      2.51540      112.436 
7.39285e-05     0.517880      79.9920 
0.000211246      3.19757      109.455 
0.000128956      2.07694      100.823 
0.000142968      1.33500      115.989 
0.000143382      2.33793      113.440 
7.23711e-05      1.01613      98.4889 
7.17177e-05      1.90358      102.284 
7.04825e-05      1.63280      100.587 
7.02192e-05     0.691466      93.7314 
0.000134567      3.30957      101.768 
6.92999e-05      1.06532      122.347 
6.90564e-05     0.506014      78.0239 
0.000194987      2.90559      110.868 
0.000254463      2.40187      99.3447 
0.000195059      1.14039      88.4926 
6.83160e-05      1.91019      103.163 
6.83407e-05      3.34419      108.029 
0.000425528     0.337083      32.2756 
0.000131977      1.30982      119.501 
0.000235767     0.717809      116.030 
0.000193237      2.34394      113.776 
0.000119900      2.63902      102.140 
6.62980e-05      1.07802      121.921 
6.62459e-05     0.768668      84.4007 
6.58152e-05      2.54885      112.490 
0.000486233      1.64754      100.491 
6.54979e-05      1.34850      115.710 
6.42595e-05      1.91366      103.601 
0.000120085     0.520697      78.3664 
0.000126225      3.36311      108.193 
0.000123959    0.0618466     -75.9638 
0.000121256      1.09078      121.504 
0.000554123      2.74233      100.081 
0.000376016      3.18848      109.799 
6.24334e-05      1.91724      104.036 
6.22887e-05     0.755381      83.1572 
0.000168261      1.36203      115.436 
6.15493e-05      3.61687      102.941 
6.11097e-05     0.509338      76.3730 
6.07795e-05      1.11647      120.700 
0.000574398      1.90683      114.146 
0.000117559      3.30654      101.514 
5.96457e-05     0.675666      92.5448 
5.96108e-05      1.31727      120.069 
5.94853e-05      2.19482      102.232 
0.000168873      1.12660      86.9471 
5.91304e-05      3.38206      108.355 
0.000114958      2.56846      112.671 
5.86269e-05     0.737902      116.565 
0.000112376      1.61137      118.951 
0.000114608      1.92094      104.470 
5.82961e-05      2.91548      105.824 
0.000112104      2.36373      113.962 
0.000162212    0.0474342     -108.435 
5.72635e-05     0.757314      82.0304 
0.000109778      2.39948      98.9912 
5.64114e-05      3.40103      108.515 
0.000360005      1.09869      122.171 
0.000106466      3.62026      103.173 
0.000154937      2.91097      111.143 
5.49601e-05     0.660681      92.6026 
0.000106879      1.32485      120.630 
5.42813e-05      1.10970      99.3350 
5.38719e-05      3.30358      101.259 
0.000106146      3.42003      108.673 
5.31940e-05      1.92474      104.903 
0.000275466      1.11142      121.759 
0.000100016      2.58810      112.850 
0.000102637     0.732547      79.3803 
5.21300e-05      2.90106      105.905 
0.000314227     0.342381      28.8108 
5.17923e-05      2.37744      113.816 
5.17129e-05      3.28596      101.053 
0.000193508      2.38236      98.6913 
0.000146981      1.90642      104.583 
5.12058e-05      1.14158      86.9872 
9.43801e-05     0.498623      74.2914 
5.00420e-05      3.46799      109.454 
0.000268522      2.38354      114.146 
9.59940e-05      1.12700      99.9638 
4.87017e-05      3.28312      100.797 
8.89415e-05     0.513079      74.7449 
4.85211e-05      1.33255      121.185 
4.84269e-05      3.44393      109.066 
4.82848e-05      1.12750      86.1859 
4.82204e-05      2.88254      105.700 
0.000133670     0.704361      116.565 
9.28919e-05     0.724051      76.8274 
0.000130342      1.63176      119.157 
0.000128237      3.51141      106.887 
8.59824e-05     0.915860      121.608 
0.000442663     0.190919     -45.0000 
0.000149368      2.11218      101.470 
8.44750e-05     0.330000      90.0000 
0.000132817      3.49732      110.067 
0.000129277      1.12859      85.4261 
0.000125715      2.60776      113.025 
0.000131822      2.86810      105.781 
4.52440e-05      1.34038      121.734 
8.87338e-05      3.28034      100.539 
8.71976e-05      1.91025      105.018 
4.43667e-05      1.44281      93.5763 
0.000203419      2.38014      98.3344 
8.10609e-05      1.37559      115.168 
8.56692e-05    0.0540833     -146.310 
4.40171e-05     0.717025      74.2192 
8.42305e-05      2.94982      111.477 
4.30243e-05      1.12969      100.713 
7.53385e-05     0.936509      121.908 
8.19678e-05      1.34833      122.276 
4.18388e-05     0.706912      72.7185 
8.00511e-05      3.27763      100.281 
0.000284847      2.10925      101.070 
7.98175e-05      1.14443      100.574 
7.98810e-05      3.52177      110.442 
4.06376e-05      3.01962      104.381 
7.52151e-05      1.91419      105.452 
7.85792e-05     0.697298      71.1753 
3.96501e-05      3.34887      108.273 
3.94762e-05      1.44195      92.9815 
0.000106058    0.0618466     -165.964 
0.000144936      2.85367      105.863 
0.000109202      1.89190      104.697 
7.35724e-05      1.36903      122.471 
6.56234e-05      3.17437      109.891 
7.24158e-05      1.11647      83.8298 
0.000175678      2.38971      114.474 
0.000270118     0.684270      116.003 
3.73295e-05     0.702282      70.0169 
3.70573e-05      2.95534      111.747 
0.000104557      3.27498      100.023 
0.000104441      3.52704      110.670 
3.66293e-05      1.12989      84.6678 
0.000174788     0.330341      92.6026 
0.000200376      2.37801      97.9768 
3.63382e-05      3.13963      104.103 
0.000137140     0.693578      68.4287 
3.60820e-05      1.59099      98.1301 
0.000187881      3.51580      107.121 
0.000128375      1.65218      119.358 
6.95098e-05      1.14728      101.310 
0.000203772      2.62744      113.199 
0.000158658     0.355598      27.6460 
6.63999e-05      3.17950      110.145 
3.49149e-05      1.27641      92.6943 
3.44258e-05     0.493407      70.4633 
0.000337131      1.89577      105.136 
3.40926e-05      2.97484      111.909 
6.55711e-05      1.37714      122.998 
3.33979e-05      3.65637      103.523 
3.31381e-05      1.44125      92.3859 
0.000107430      2.83924      105.945 
7.53778e-05      2.63403     -75.4889 
0.000171293      1.15032      102.043 
9.12474e-05      3.53236      110.898 
8.93433e-05      1.11818      83.0657 
3.17596e-05      3.12879      104.436 
3.16973e-05      1.56007      90.5509 
3.15473e-05      2.96093      112.017 
0.000191027      2.64485     -75.8849 
0.000263389     0.685420      66.8014 
0.000116653      3.25510      99.5491 
3.08302e-05      2.40959      114.651 
3.03869e-05      1.54507      90.5563 
0.000188943      2.83516      105.654 
5.76209e-05      1.38537      123.518 
2.98731e-05    0.0764853     -168.690 
0.000209614      3.98018      103.513 
0.000162729      2.37597      97.6185 
0.000255169      2.39597      114.800 
0.000110110      1.54500      90.0000 
2.87547e-05     0.965259      122.949 
2.84892e-05     0.490433      66.5713 
2.84137e-05      2.98047      112.176 
2.81095e-05     0.690978      117.121 
7.45601e-05      1.36928      114.600 
0.000293080      2.36344     -73.4052 
2.75193e-05    0.0750000      180.000 
5.10765e-05      1.08602      122.593 
5.21539e-05      3.55174      111.038 
0.000135077      1.39371      124.032 
2.64810e-05      2.98617      112.443 
2.63646e-05     0.201804     -41.9872 
7.31925e-05      1.12009      82.3039 
5.02727e-05      3.53456      107.281 
5.38579e-05      1.66797      101.411 
9.57755e-05      3.25265      99.2886 
2.57445e-05      1.65959      119.809 
2.55990e-05      3.00004      112.333 
6.54571e-05     0.212132     -45.0000 
4.71847e-05     0.986015      123.207 
0.000279431      1.15354      102.771 
0.000361334      1.36862      43.6678 
7.09307e-05    0.0900000      180.000 
2.49470e-05      3.08523      104.644 
2.47790e-05     0.362491      24.4440 
2.46807e-05      1.53007      89.4383 
9.39628e-05      2.70008     -83.9410 
0.000225510      2.37403      97.2597 
2.42548e-05     0.636750      46.9092 
0.000223996     0.222991     -42.2737 
4.69309e-05      3.00577      112.598 
9.40188e-05      2.72757      100.136 
2.37092e-05      1.51530      88.8656 
0.000140641      3.52024      107.354 
6.24675e-05      2.82482      106.029 
0.000142640     0.670820      116.565 
2.29835e-05      1.00679      123.453 
2.27898e-05     0.315357      92.7263 
2.27455e-05      3.55715      111.263 
2.25393e-05      1.50067      88.2816 
7.26727e-05      2.64715      113.369 
0.000186441     0.316425      95.4403 
4.33320e-05      1.48621      87.6863 
0.000114244      3.99828      103.671 
3.90422e-05      2.85938      101.192 
0.000273012      2.69854     -84.2577 
2.19159e-05      1.67262      119.554 
2.18052e-05     0.195576      4.39871 
6.25508e-05      3.01157      112.861 
4.15575e-05      1.10736      81.4309 
2.14356e-05     0.647090      45.9392 
0.000101969      2.80432     -27.3874 
2.12400e-05      3.99476      103.462 
0.000151316      4.94268      108.215 
0.000101292      6.10633      107.144 
0.000108591      2.71413     -76.5782 
4.09977e-05      2.11521      101.868 
4.05119e-05      3.25026      99.0276 
8.84777e-05      1.11939      122.412 
0.000354818     0.900000     -53.1301 
7.63896e-05      1.48689      87.1087 
9.01194e-05      2.82072      105.736 
2.00829e-05     0.657609      45.0000 
0.000172872     0.106066      171.870 
1.95205e-05      2.83516     -74.3461 
5.67095e-05      1.87362      104.370 
7.35403e-05      3.52580      97.5785 
3.71935e-05     0.691466      65.6589 
0.000171281      2.79101     -27.5291 
1.90199e-05      1.02758      123.690 
1.89741e-05      1.66507      100.905 
0.000279708      6.12509      107.237 
3.65710e-05      2.83924     -74.0546 
0.000101928      1.36310      114.027 
6.75251e-05      3.01742      113.124 
1.84840e-05      1.13208      122.005 
8.16082e-05      1.10970      80.6650 
3.57680e-05      1.40216      124.540 
0.000118789      1.58525     -96.5198 
1.81149e-05      2.11835      102.265 
3.14639e-05      2.63339      113.499 
6.52692e-05      1.85540      104.036 
1.76105e-05      1.04839      123.917 
2.91714e-05      3.16930      109.636 
0.000200129      1.37951      43.2376 
1.74131e-05     0.668300      44.0906 
3.27658e-05      2.66528      101.689 
3.37652e-05    0.0912414      170.538 
3.40233e-05      1.22982      30.0049 
1.72152e-05      1.68568      101.810 
3.14818e-05      1.89315      114.331 
1.70370e-05      2.10369      102.352 
1.69246e-05      1.48772      86.5318 
4.53125e-05      2.40230      115.125 
0.000136696      3.52385      97.3368 
0.000131608      2.37218      96.9003 
0.000112842      1.11647      6.17018 
3.28082e-05      5.38402     -79.5667 
3.04609e-05      3.56262      111.488 
1.63671e-05      1.22238      29.3961 
3.11746e-05      2.19559      119.017 
1.60287e-05     0.679154      43.2101 
4.63141e-05      1.47375      85.9144 
3.04211e-05      2.10695      102.750 
0.000118631      1.23548      29.0546 
9.84934e-05      5.10467     -80.8698 
4.43689e-05      2.91776      103.679 
0.000152976      1.58703     -97.0578 
1.54713e-05     0.560045      82.3039 
4.29667e-05      5.38132     -79.7237 
9.42869e-05      4.95693      108.161 
5.76193e-05      4.13657      104.490 
0.000198571      2.91641     -34.0987 
0.000117318      2.37360     -73.8557 
1.49362e-05      1.83724      103.696 
6.47909e-05      5.36927     -79.5377 
4.01029e-05      2.84340     -73.7640 
1.45057e-05     0.558234      83.8298 
2.72640e-05      3.02335      113.385 
6.59533e-05      1.47489      85.3331 
1.41766e-05     0.318198      98.1301 
5.03916e-05      2.38236      114.952 
7.77231e-05      1.85182      103.586 
3.88279e-05      2.71069     -76.8866 
3.91551e-05      2.79797     -27.8015 
1.40569e-05     0.690163      42.3575 
3.79842e-05      2.12492      103.055 
5.09214e-05     0.571774      85.4860 
3.77176e-05      4.51231      109.820 
1.35854e-05      2.63031     -75.8053 
4.95710e-05      1.11223      79.9025 
8.84797e-05      1.24861      28.7203 
3.74350e-05      3.50146      107.193 
7.49452e-05      4.63060      118.225 
9.85864e-05      3.53873      97.3058 
3.74919e-05      2.18249      119.208 
1.33005e-05      3.02037     -86.5834 
1.32365e-05      2.67699      101.310 
3.70711e-05      2.92134      103.965 
1.30487e-05      1.10675      122.829 
2.48247e-05      2.35729      96.9441 
2.48476e-05      4.15486      104.638 
2.45672e-05      4.63772      118.389 
1.25119e-05      2.71550      100.503 
3.57966e-05     0.233345     -45.0000 
4.76593e-05      2.89516     -89.4063 
1.24137e-05      2.88472     -25.8989 
1.23462e-05      3.00958      113.499 
4.73002e-05      6.12955      107.371 
1.22010e-05      5.10708     -80.7037 
1.21393e-05     0.701320      41.5318 
2.35030e-05      2.68362     -84.2257 
2.35375e-05      1.58894     -97.5946 
1.18961e-05      1.13891      102.938 
1.18718e-05      2.63940      113.797 
1.18077e-05      1.08167      123.690 
1.17976e-05      1.65034      101.004 
2.30578e-05      4.50762      103.666 
1.17085e-05      5.09227     -80.6764 
2.29955e-05      1.26178      28.3930 
1.15906e-05      2.35553      96.5819 
1.15136e-05      2.70075      100.561 
1.14829e-05      2.89822     -25.7693 
1.14357e-05      1.83375      103.241 
1.13149e-05      2.90400     -34.2646 
1.13236e-05     0.109202      164.055 
1.13050e-05      1.46271      84.1140 
