! Center RA: 12 21 31.69052,  Dec: +28 13 58.50011 (2000.0)
! Established model.
! Flux (Jy) Radius (mas)  Theta (deg)  Major FWHM (mas)  Axial ratio   Phi (deg) T \
! Freq (Hz)     SpecIndex
 0.0779976      0.00000      0.00000 
 0.0184499    0.0200000     -90.0000 
0.00162770    0.0200000      0.00000 
 0.0162428    0.0282843      45.0000 
0.00869497    0.0447214     -116.565 
 0.0690867    0.0632456     -108.435 
 0.0192679    0.0447214      63.4349 
 0.0371578    0.0565685      45.0000 
0.00924974    0.0721110      56.3099 
 0.0525055    0.0632456      71.5651 
 0.0138999    0.0894427     -116.565 
 0.0382677    0.0824621     -104.036 
0.000794551     0.164924      104.036 
0.00596948     0.184391      102.529 
0.00327754    0.0447214      26.5651 
0.00306585    0.0600000     -90.0000 
0.00135274    0.0282843     -45.0000 
0.00224744     0.208806      106.699 
0.000293649    0.0400000      0.00000 
0.000139297    0.0400000     -90.0000 
0.000128962     0.203961      101.310 
0.00176400     0.223607      100.305 
0.000878773     0.145602      105.945 
0.000358684     0.101980      101.310 
0.00244070     0.126491      108.435 
0.00207054     0.243310      99.4623 
0.00163016     0.263059      98.7462 
0.00181996     0.152315      113.199 
0.00238850    0.0632456      18.4349 
0.000578413     0.417612      106.699 
0.00185998     0.107703     -111.801 
0.000926349     0.423792      109.290 
0.000116892     0.247386      104.036 
0.000831986     0.266833      102.995 
0.000910663     0.442719      108.435 
0.000535343     0.742159      104.036 
0.000378674     0.170880      110.556 
0.000227427     0.282843      98.1301 
0.000177467     0.722772      104.421 
4.39833e-05    0.0600000      0.00000 
! Tentative model.
! Flux (Jy) Radius (mas)  Theta (deg)  Major FWHM (mas)  Axial ratio   Phi (deg) T \
! Freq (Hz)     SpecIndex
0.00116840     0.161245      97.1250 
5.83919e-05     0.223607      100.305 
0.00150762    0.0894427     -116.565 
0.000578785     0.141421      98.1301 
0.000167436     0.243310      99.4623 
0.000745194     0.776660      101.889 
0.000324475     0.121655      99.4623 
0.000310331     0.266833      102.995 
0.000701208     0.523450      96.5819 
0.000434650     0.100000      90.0000 
0.000465908     0.635610      102.724 
0.000670544     0.503587      96.8428 
0.000280914     0.286356      102.095 
0.00145348     0.659697      104.036 
0.000136989    0.0800000      90.0000 
0.000802446     0.282843      98.1301 
0.000482235     0.796241      101.592 
0.000457926    0.0447214      63.4349 
0.000194972     0.466905      99.8658 
7.27868e-05     0.447214      100.305 
0.000336037     0.815843      101.310 
0.000197181     0.427551      100.784 
9.10210e-05     0.263059      98.7462 
0.000146111     0.302655      97.5946 
0.000613485     0.116619     -120.964 
0.000162217     0.181108      96.3402 
0.000528426    0.0565685      45.0000 
0.000178784     0.407922      101.310 
6.09829e-05     0.835464      101.041 
0.000154010     0.322490      97.1250 
0.000225469     0.839524      102.381 
5.07144e-05     0.200998      95.7106 
0.000501144     0.431741      103.392 
0.000133612     0.342345      96.7098 
0.000165500     0.543323      96.3402 
0.000268275     0.859069      102.095 
0.000603794      2.05105      113.565 
0.000460107      1.11803      116.565 
2.35069e-05     0.220907      95.1944 
2.32052e-05     0.164924      104.036 
0.000366556      1.25284      73.3008 
0.000166300    0.0632456      18.4349 
0.000695416      3.27567      121.264 
0.000460821     0.107703     -111.801 
2.23236e-05     0.145602      105.945 
0.000241270     0.878635      101.821 
0.000164201      1.18929      109.654 
7.99143e-05      2.03273      113.791 
5.97714e-05     0.200000      90.0000 
0.000618978     0.640312      104.470 
0.000809925      1.80942      103.422 
0.000151799     0.521536      94.3987 
5.49628e-05     0.180000      90.0000 
3.71650e-05     0.200998      84.2894 
0.000196445      1.19616      110.556 
0.000175989      2.71205      127.208 
0.000324257    0.0721110      33.6901 
5.42354e-05      2.04088      114.305 
8.47014e-05     0.412311      104.036 
9.80308e-05     0.865332      56.3099 
6.80321e-05     0.902441      102.804 
0.000346733      2.05913      114.075 
8.51231e-05     0.181108      83.6598 
0.000215885      3.21727      123.591 
0.000217105     0.436807      105.945 
3.20539e-05     0.295296      118.301 
7.82170e-05     0.184391      77.4712 
7.83981e-05      2.40707      118.269 
6.20821e-05     0.898221      101.560 
0.000130900      1.12712      117.474 
8.76390e-05     0.305287      121.608 
0.000202000      2.71330      108.034 
0.000156418      4.19990      119.373 
0.000100111      2.00360      116.053 
4.07930e-05     0.878635      41.3086 
0.000292817      2.38000      118.072 
8.48089e-05     0.189737      71.5651 
0.000155514     0.921954      102.529 
0.000230856      3.57060      121.019 
5.44113e-05     0.848764      55.5610 
6.74992e-05     0.520384      92.2026 
6.62562e-05      1.20333      111.448 
0.000295223     0.126491     -108.435 
0.000234432      1.25873      72.4287 
0.000220738      2.07740      113.850 
5.29503e-05     0.316228      124.695 
0.000188630      2.71956      108.435 
2.62758e-05      2.01246      116.565 
0.000138554      3.20624      123.294 
1.31375e-05     0.340588      93.3665 
0.000227198      4.19013      119.134 
0.000416335    0.0894427      26.5651 
5.02156e-05      1.15412      117.897 
9.67339e-05     0.196977      66.0375 
0.000411636      3.70912      132.378 
9.78196e-05      1.99459      116.822 
0.000198349     0.442719      108.435 
0.000143412      1.01074      62.9279 
0.000105243     0.300000      126.870 
5.56650e-05     0.860233      54.4623 
4.70089e-05     0.520000      90.0000 
9.32597e-05      4.43788      115.064 
1.22049e-05      1.17184      117.440 
9.96498e-05      1.18119      118.301 
1.17869e-05     0.340000      90.0000 
7.29768e-05      1.09836      100.491 
6.46427e-05      3.30315      121.380 
3.28085e-05      2.56944      121.958 
0.000114761      2.00370      117.332 
0.000267357      3.57754      120.579 
0.000118225     0.205913      60.9454 
7.26844e-05     0.520384      87.7974 
0.000240753      4.42945      114.829 
6.20908e-05     0.941488      102.265 
7.41942e-05      3.97960      109.983 
3.77967e-05     0.906863      41.4237 
5.30738e-05      2.09571      113.629 
0.000157761     0.312410      129.806 
0.000260628    0.0824621      14.0362 
1.05426e-05      1.21491      110.225 
0.000113540      1.88308      112.479 
0.000250359      2.10381      114.128 
0.000117036      3.20063      123.789 
5.70499e-05      2.58643      121.724 
0.000389018      3.98648      110.253 
1.00492e-05     0.360000      90.0000 
5.77991e-05      1.19080      119.148 
3.25164e-05     0.735391      45.0000 
0.000113992      2.94768      109.418 
3.74544e-05      1.23628      99.3099 
9.70977e-06      2.99793      104.685 
8.23099e-05      2.99293      104.315 
7.78135e-05      2.73386      131.738 
9.47816e-06      2.72419      127.543 
0.000163181      1.20416      131.634 
0.000183714      2.96655      109.290 
0.000120453     0.449444      110.854 
7.58909e-05      3.41163      123.038 
7.29213e-05     0.521536      85.6013 
0.000130078     0.721388      46.1233 
7.14350e-05      2.01296      117.838 
7.78727e-05      1.07517      99.6375 
4.38709e-05      1.20830      118.686 
6.89152e-05     0.360555      86.8202 
8.46600e-05      2.37065      117.646 
0.000205068      1.25603      99.1623 
0.000227360      2.57597      121.345 
4.21580e-05      2.98804      103.943 
7.29465e-05     0.216333      56.3099 
0.000118263      4.08832      117.693 
6.31486e-05      1.21803      119.511 
0.000178153     0.792465      137.045 
0.000137686      3.87489      114.713 
0.000198673      5.27530      121.038 
6.19096e-05      2.96385      103.661 
4.96894e-05      4.21735      119.239 
0.000137545      1.27781      140.080 
1.48500e-05      1.23369      109.904 
6.14444e-05      2.73642      127.875 
0.000308822     0.141421     -98.1301 
0.000219950     0.325576      132.510 
3.70364e-05      3.74769      116.292 
8.98474e-05      3.18955      123.491 
5.64686e-05      1.25300      65.4804 
8.05178e-05      3.42257      123.319 
7.39165e-05     0.707672      47.2906 
0.000108066      4.40291      114.702 
4.67768e-05      2.83387      112.402 
0.000160831      1.22801      120.324 
9.76694e-05      1.80488      102.804 
2.84019e-05      4.59778      115.785 
0.000111825      2.95919      103.285 
6.07281e-05      3.89307      114.590 
3.41534e-05      2.11206      114.624 
5.76827e-05      4.60717      115.453 
3.90432e-05      1.00180      63.9465 
0.000219248      3.62403      105.033 
7.50449e-05     0.523450      83.4181 
0.000135098      2.13026      114.399 
4.29224e-05      1.25220      63.4349 
0.000110781      2.36144      117.216 
7.66142e-05     0.430813      111.801 
3.69696e-05      5.28220      120.741 
0.000125857      3.09613      127.388 
0.000117950      2.00479      118.610 
5.44912e-05      4.92325      106.521 
1.04211e-05      1.27201      106.440 
0.000102264      4.07907      117.445 
5.11716e-05      4.23481      119.107 
0.000199103      4.83198      108.585 
7.84150e-05      2.90338      99.9165 
3.71521e-05      3.75659      116.565 
6.03718e-05      1.66973      96.1886 
5.19136e-05      1.20615      130.292 
0.000160413     0.807217      138.013 
9.00789e-05      3.45028      123.414 
8.36406e-05      4.61671      115.122 
1.09111e-05      1.26143      64.6538 
7.92584e-05      1.29321      140.648 
0.000113173      4.91760      106.297 
7.15047e-05      3.58469      120.141 
8.28596e-05      2.98329      103.570 
7.86486e-05      1.82439      102.665 
3.38917e-05     0.920217      42.3575 
4.67508e-05      1.26127      62.6223 
2.11984e-05      3.25748      114.677 
1.03787e-05      2.82631      112.027 
1.93019e-05     0.184391      130.601 
6.05367e-05      3.68766      109.319 
1.51698e-05      4.39459      114.466 
3.35768e-05     0.423792      109.290 
1.85478e-05      1.26491      71.5651 
4.53873e-05      1.89082      113.039 
6.36130e-05      1.23822      121.122 
2.28674e-05      3.23932      114.825 
3.66173e-05      2.90000      99.5273 
7.65907e-05      5.04591      117.885 
2.24055e-05      1.27012      63.8384 
2.69011e-05      4.25699      112.951 
3.06540e-05      1.27059      61.8214 
5.21732e-05      4.93125      106.009 
1.31921e-05     0.362215      83.6598 
1.73675e-05      3.06757      107.844 
5.20323e-05     0.160000     -90.0000 
2.58668e-05      1.93546      103.749 
2.18517e-05      3.59205      119.705 
3.85758e-05      3.61889      104.727 
1.26914e-05      1.89283      96.6745 
1.25697e-05      1.22115      148.392 
4.20410e-06      1.25300      98.2594 
4.16737e-06      3.62684      119.392 
4.12662e-06     0.765768      40.7636 
