! Center RA: 12 21 31.69052,  Dec: +28 13 58.50019 (2000.0)
! Established model.
! Flux (Jy) Radius (mas)  Theta (deg)  Major FWHM (mas)  Axial ratio   Phi (deg) T \
! Freq (Hz)     SpecIndex
 0.0873813      0.00000      0.00000 
0.00749363    0.0202604      180.000 
0.000465772    0.0397705      90.0000 
0.00305358    0.0633577      71.3505 
0.00343780    0.0633577     -161.350 
 0.0190263    0.0896014      63.6495 
0.00957665    0.0896014     -153.650 
0.00416475     0.286260      102.105 
0.000962614    0.0720098     -146.476 
0.00106231    0.0562440     -135.000 
0.00570946     0.291183      106.006 
0.00111130    0.0446338     -116.996 
0.00140753    0.0397705     -90.0000 
0.00165491     0.107434      68.2729 
0.000279394    0.0446338     -63.0042 
0.000276876     0.310708      104.976 
0.000887677     0.250509      61.3621 
0.000172246     0.233573      59.0678 
0.000170805     0.134233      63.4349 
0.00212618     0.260826      57.4530 
0.00347460     0.450910      77.2126 
0.00156243    0.0446338     -26.9958 
0.000682013     0.271820      53.9843 
0.00129688    0.0633577     -18.6495 
0.00198930     0.446997      79.6521 
0.000854937     0.297155      109.625 
0.000264398     0.312731      50.1592 
8.55742e-05     0.284207      50.6787 
0.00135879     0.100252      53.2159 
7.95149e-05    0.0720098     -33.5245 
0.000442533     0.325575      47.5220 
0.00170595    0.0828082     -14.1622 
0.000640871    0.0896014     -26.3505 
0.00106717     0.323277      111.801 
0.000451741     0.470689      12.2415 
0.000253463      1.44581      104.426 
-0.00209503      1.68440     -175.913 
0.000958405      1.59845      98.6398 
0.000550933      2.91820      118.674 
0.00104418      1.44089      103.645 
0.00117653     0.490508      11.7397 
0.00224519      1.99354      13.3405 
0.000271519     0.769565      81.0245 
0.000473861      2.94605      124.771 
0.00176472      1.64939     -129.091 
4.91212e-05      1.63669     -128.541 
0.00154772      1.63371     -129.539 
0.000371746     0.339586      45.0000 
0.00120852      1.97938      14.0415 
0.000348663     0.766666      82.5202 
-0.000622000      1.68308     -176.601 
-0.000666894      2.67061     -157.080 
0.000473435      3.52761      105.458 
0.000243714      1.76578      103.091 
0.000203479      1.43625      102.860 
0.000109980      1.97457      13.4712 
0.000644993      2.93454      124.446 
0.00154053      3.82481      100.547 
0.000166094      1.18470      111.788 
0.000164909      1.62084      12.8395 
0.000398235     0.204262     -168.773 
0.000216910     0.764371      83.9704 
0.000161679      2.49876      10.1356 
0.00273170      2.22997     -150.442 
0.00267473      1.62529      13.5101 
0.000295335      2.56235      29.9738 
0.00168673      1.44014     0.806089 
0.00222225      1.82688      138.097 
8.94489e-05      2.47956      10.2149 
0.000736476      2.29019      19.3848 
0.000127903    0.0848966      45.0000 
0.00167711      2.12136     -177.831 
0.000993320     0.739882      90.0000 
0.000647039      2.66481      31.1879 
0.000108164      2.63196      16.7869 
0.00115123      3.80867      100.903 
0.000213168      3.51662      123.873 
5.20648e-05      2.53534      29.7975 
0.000578784      2.76800      130.018 
-0.000192725      2.04263     -161.738 
0.000169964      2.61329      16.9104 
2.52779e-05      2.68216      30.9638 
0.000144601     0.533698      76.9993 
0.000240270      2.82042      29.2930 
0.000377279      3.10914      94.4295 
0.000681819      1.62089     -128.987 
0.000336519      1.24353      101.134 
0.000177413      2.83810      29.0929 
-0.00392757      1.34928     -101.972 
-0.000764111      2.17716      169.414 
0.000232171      2.64814      31.4065 
0.000463471     0.553458      77.4712 
0.000170390     0.223431     -169.747 
0.00105630      2.61903      17.3188 
8.62938e-05      1.78109      167.691 
-9.89428e-05      2.02411     -161.565 
0.000103506      3.22639      107.306 
0.000374675      2.82831      28.7342 
0.000749044      1.80016      167.824 
0.000137045      4.57612      126.472 
0.000905029      2.06477      135.780 
0.000159645      1.29319     -121.716 
0.000585838      2.05083      135.400 
0.000283232      2.65875      31.7791 
3.88911e-05      2.30861      19.2241 
0.00160459     0.227911     -164.728 
0.000130816      1.84201      138.518 
0.000108484      3.22064      106.974 
0.000496966    0.0802914      0.00000 
0.000291705      1.28304     -120.975 
-0.000856372      2.62522      3.49052 
1.89091e-05      2.90090      136.950 
0.000123144      2.91425      136.669 
0.000573547      2.14161     -177.851 
0.000132936      3.50537      123.598 
0.000583970     0.804984      75.5881 
7.00247e-05      3.82115      100.248 
0.000673245      2.84609      28.5381 
0.000361292      3.66223      103.581 
6.48439e-05      3.94291      100.228 
0.000114790      4.56411      126.267 
5.17076e-05      2.63087      31.6364 
0.000522354      2.64155      32.0106 
0.000457461      1.29029     -119.741 
0.000490438      1.81997      167.958 
0.000123256     0.740159      91.5686 
-0.000673366      1.68203     -177.264 
7.61834e-05      2.94034      123.909 
0.000157892      2.90009      136.405 
0.000165509      2.01326      13.2075 
0.000870600      1.46039     0.794906 
-1.57878e-05      2.00490     -161.382 
0.000403734      1.94482     -175.862 
5.83186e-05      2.84592      33.2417 
1.51361e-05      2.50347      22.0597 
0.000412485      2.37195      14.1549 
-0.000497252      1.90817      33.0276 
-0.000100299      2.17353      169.939 
-0.000664110      2.60500      3.51765 
0.000850270      3.80489      100.603 
0.000458629      1.83979      168.090 
0.000213103      2.01799      13.7675 
0.000207813      1.28036     -118.953 
9.19788e-05      3.52226      123.416 
-0.000648872      2.19348      170.032 
0.000216826      2.16186     -177.872 
0.000562071      4.75038      117.856 
1.35754e-05     0.558204      75.4407 
-0.000918852      4.33202      118.696 
0.000407252      1.28826     -117.774 
0.000723115      2.62439      32.2450 
0.000231954      2.63766      17.1926 
0.000314882     0.810060      74.2514 
0.000129567      3.06775      129.710 
0.000866022      1.13512     -104.275 
3.57463e-05      2.52156      21.8932 
7.18721e-05      3.01967      130.980 
1.24430e-05      2.94536      123.370 
0.000108051      2.86325      28.3516 
0.000415674      1.92536     -175.821 
0.000437067      2.73666      6.29682 
-0.000532747      1.89184      33.3497 
0.000279289      3.68193      103.507 
-0.000791816      2.58611      3.99323 
0.000192962      3.51155      123.150 
6.23484e-05      3.21478      106.629 
0.000513212      2.77064      129.428 
0.000179167      3.09126      94.8179 
0.000452344      2.39160      14.0362 
0.000314328      2.18135     -177.891 
0.000201290      2.89071      28.5143 
-0.000234205      2.54686     -164.973 
0.000468954      1.85888      168.214 
-0.000723656      1.86312      77.6039 
1.12485e-05      1.27894     -116.971 
0.000131184      1.28180     -112.948 
7.17609e-05     0.516406      54.4623 
-0.000226684      1.88078      32.8341 
0.000261360      4.04842      93.6770 
0.000754328      1.29241     -111.814 
0.000288694      3.08073      130.000 
-0.000349670      1.68119     -177.954 
-0.000593390      5.05000      125.322 
0.000222637      4.74130      117.648 
0.000244189      4.38494      125.725 
0.000148254      2.62513      17.7409 
0.000266688      3.52854      122.970 
0.000126766      2.60791      32.4737 
4.48886e-05      1.27432     -112.140 
0.000185007      2.90853      28.3238 
9.63236e-06      3.03499      130.729 
-0.000458182      2.64913      131.624 
0.000434946      2.20160     -177.910 
0.000130089      1.98073      106.416 
7.07628e-05     0.504899      56.3335 
9.26869e-06      3.20905      106.282 
-0.000174772      2.28664      140.312 
7.00559e-05      3.09303      95.1919 
0.000154640      1.23067     -133.023 
0.000136671      4.74100      117.109 
9.38014e-05      1.82560      137.232 
-0.000178799      2.33979      179.504 
0.000178435      1.87872      168.340 
-0.000204043      1.56003      126.137 
-0.000169035      2.56665      4.02356 
9.99226e-05      3.79598      97.8738 
7.48746e-05      3.51755      122.693 
-5.88371e-05      1.35508      8.50253 
-6.58022e-05      1.37736      9.18521 
-4.92678e-05      1.74494     -154.912 
-2.45548e-05      1.09265     -113.731 
8.18102e-06      1.11549     -104.532 
8.13562e-06      2.13938     -159.188 
-0.00112679      8.26353     -121.843 
0.00228538      5.49837      159.784 
-0.000652665      9.57862     -21.6914 
-0.00180655      2.74147     -20.9452 
0.00153727      13.7898     -42.2961 
0.000966540      9.44542     -159.034 
-0.00177386      9.56704     -21.8448 
-0.000251322      8.25326     -121.728 
-0.00100629      3.52134     -44.3093 
-0.000959231      8.27050     -121.654 
0.000340243      9.81089      156.831 
-0.000724949      6.34821     -95.4262 
0.000825425      8.36566     -50.3352 
-0.00102329      5.72181     -5.01075 
-0.000633763      3.22297      177.505 
0.000517115      8.37697      57.1840 
-0.000619442      4.32528      66.2767 
0.000326925      9.45986      24.6155 
-0.000111838      6.97584      69.1749 
-0.000383950      9.95989     -90.0000 
-0.000493868      9.80252     -1.28521 
0.000216935      9.87489     -26.4619 
-0.000671120      7.00199      69.0789 
-0.000492037      3.76076      23.8441 
-0.000676356      8.94540      70.2670 
-0.000387111      9.32940      152.831 
-0.000851533      5.70482      71.8201 
0.000746796      9.15022      66.0141 
0.000777860      8.27795     -173.201 
0.000463982      9.78236      156.631 
0.000203471      10.0571      149.660 
0.000103454      9.42650     -158.990 
-0.000561112      11.1669     -51.8387 
-0.000286490      9.16954      117.683 
-0.000201466      5.17612     -45.3113 
0.000930186      9.44145      24.6667 
-0.000653561      9.99250     -120.158 
0.000656581      9.67193     -125.234 
0.000470495      9.89236     -26.4115 
-0.000649406      11.0483      117.726 
-0.000195823      7.35230      86.7235 
0.000371326      8.12856     -127.604 
0.000729517      8.30450      18.8246 
-0.000556854      10.6973      69.1928 
0.000914891      9.20934     -160.855 
-0.000732271      14.2265     -135.000 
0.000193218      5.76801      161.186 
0.000195045      10.0540     -153.028 
-0.000362955      3.67284     -102.903 
-0.000452846      6.17138      116.565 
0.000192407      9.13171      65.9625 
0.000363409      7.41583      159.803 
-0.000361921      6.18070     -48.9332 
-0.000187871      10.5008      26.4680 
-0.000711915      10.8144     -39.3714 
-0.000577764      11.6534     -130.963 
-9.53579e-05      13.3723      131.727 
-0.000560033      8.36538     -119.508 
-0.000263878      10.2410     -133.893 
9.27122e-05      8.83719     -32.9007 
0.000348774      10.0359     -152.975 
-0.000261450      6.71497      158.326 
0.000260913      10.8949      124.301 
0.000348523      8.84324     -32.7192 
-0.000176388      7.35344      86.5717 
-0.000174769      10.1410    -0.792839 
-8.81457e-05      11.1727      27.3911 
-0.000254380      3.48531     -35.4215 
8.75388e-05      5.45608     -110.825 
8.74845e-05      9.12379      66.0744 
-0.000171313      11.0736     -115.917 
-0.000170617      7.96874     -156.008 
-0.000254829      9.01032     -55.2167 
0.000171002      11.6779      42.5704 
-8.63292e-05      7.74056     -131.018 
0.000170242      8.29807     -173.218 
-0.000170072      2.72992     -21.4943 
-8.59295e-05      8.35290     -30.1860 
8.51575e-05      9.03867     -19.1179 
-8.50702e-05      9.31138      152.774 
8.44485e-05      12.6504     -38.6449 
0.000780340      7.67514      115.628 
-8.34950e-05      8.63962     -161.648 
0.000170172      5.19038     -82.0222 
-8.25159e-05      10.9762     -154.414 
-8.24134e-05      13.8467     -45.8761 
8.21337e-05      7.60529      57.0202 
8.18901e-05      3.35427     -81.7684 
0.000794037      8.00279      24.1954 
-8.17663e-05      10.7045      69.0914 
-0.000690156      8.72579      135.094 
-0.000354692      8.71150      135.188 
-0.000374367      12.1252      128.573 
0.000294435      8.51553      72.9255 
-0.000397435      9.82316      38.3871 
0.000143709      9.28432      114.023 
-0.000569614      9.95503     -120.019 
0.000252128      11.4425      120.691 
0.000247197      8.92859      106.528 
-0.000247972      2.07527     -116.315 
-0.000378830      10.6169     -140.734 
-0.000185477      8.71145      135.000 
6.63452e-05      9.52279      110.147 
6.60576e-05      8.50960      73.0559 
-0.000800416      10.2526     -18.8925 
-0.000430279      12.1221      128.702 
-0.000122117      10.0111      50.9995 
6.33507e-05      9.29259      114.137 
0.000122053      8.75259     -20.4641 
-6.30639e-05      7.83347      84.7236 
-0.000168607      9.35937      140.289 
6.18307e-05      8.29136      73.7498 
6.08612e-05      6.19599      49.0563 
0.000167373      8.31081      73.7888 
0.000318162      11.4257      120.740 
-5.89309e-05      12.2895      48.8917 
-0.000112174      9.49239      138.416 
-5.86098e-05      10.4057     -154.865 
0.000208814      6.98921      95.2546 
-9.58437e-05      9.28014      119.714 
-0.000164039      9.78324     -1.52073 
-0.000108182      12.2748      48.8319 
0.000479351      5.67792     -113.672 
-0.000486384      9.50872      20.9508 
0.000105685      8.77087     -20.4195 
-5.45881e-05      9.67662     -121.391 
-5.42637e-05      10.6583      50.6340 
0.000345144      5.69580     -113.593 
-0.000102346      8.69776      134.720 
-9.96883e-05      9.29774      119.652 
0.000102152      7.03204     -58.2519 
5.32613e-05      8.90989      106.564 
5.23339e-05      11.4535     -29.3831 
-0.000187403      13.8331     -46.0550 
-5.21555e-05      11.0280      132.427 
-0.000322729      10.0563      64.8098 
0.000148075      6.04652      111.132 
0.000198260      6.77956     -47.2741 
-5.17893e-05      10.3790     -154.915 
-5.14698e-05      9.83575      38.4796 
-5.11480e-05      9.94107     -118.213 
-0.000219825      12.2615      48.9031 
-0.000240128      9.78274     -1.40650 
-0.000317279      10.0271     -107.171 
0.000146271      5.28093     -79.9675 
-5.01840e-05      3.28913     -104.791 
5.02535e-05      9.30089      114.251 
4.97559e-05      6.50085      56.1632 
0.000568437      9.72440      178.231 
8.75145e-05      11.4440     -29.2980 
0.000162739      11.7989     -33.6638 
0.000293100      8.91569      106.689 
-4.82994e-05      11.7625      40.3789 
-9.45060e-05      9.00266     -85.9229 
0.000138261      6.52982      55.4827 
-0.000210252      3.28420     -104.462 
0.000185099      11.4780     -27.7243 
0.000203908      5.43785     -110.898 
-0.000136034      6.70783      92.7315 
0.000328981      7.15465     -60.7143 
0.000130552      9.00913     -45.6277 
0.000290599      7.66569      115.830 
0.000235912      11.7877     -33.5818 
0.000272911      11.4357      120.824 
-0.000600723      11.7773      40.3174 
8.95871e-05      6.76469     -47.1577 
-8.28554e-05      6.01777      12.2824 
4.49219e-05      10.3682      169.664 
8.82955e-05      5.26098     -79.9291 
-0.000203103      9.49022      138.247 
4.47175e-05      10.0607      14.0373 
0.000162212      9.23377     -108.827 
0.000126565      9.25132      111.963 
-0.000167921      9.02146     -86.0604 
-0.000317651      9.80300     -1.40360 
-0.000201690      7.75338     -131.127 
4.35230e-05      11.4610     -29.2503 
-0.000435227      11.1978     -119.773 
-8.27220e-05      9.97258     -119.960 
0.000154530      10.3882      169.684 
-0.000124061      9.48981      20.9946 
0.000300329      10.2490      9.77542 
0.000546333      6.77848     -47.0321 
8.36172e-05      5.26456     -79.7120 
0.000157670      10.0796      14.0104 
-0.000123734      7.00268     -178.526 
0.000123832      10.0335      160.192 
0.000241141      6.04358     -137.279 
0.000103462      6.96978      95.2693 
0.000339259      11.4689     -27.6381 
4.21973e-05      10.2438      159.902 
4.16340e-05      8.27558     -173.340 
-4.15585e-05      6.39600      158.730 
-0.000119108      13.0165     -49.9225 
7.99026e-05      6.52424      55.2407 
0.000405796      13.6418     -132.981 
7.74782e-05      4.75718     -141.829 
0.000508169      10.6992      120.064 
0.000108981      8.25620     -173.325 
-0.000145142      11.8054      40.3260 
7.77572e-05      5.24463     -79.6724 
-7.43335e-05      6.19827      157.822 
-7.74286e-05      8.50047     -108.093 
0.000714836      9.03208     -165.901 
-0.000372655      2.13783     -117.285 
-0.00167104      9.48257      20.8803 
3.91197e-05      10.2671      84.5227 
0.000204884      6.97167      95.4351 
0.00114463      10.0526      160.231 
-0.000111901      10.0018     -107.095 
-0.000389883      7.33069     -107.791 
-0.000633555      8.48121     -108.135 
0.000111990      9.25892      112.079 
3.85393e-05      8.50052     -52.4564 
-0.000658071      10.0293      64.8653 
0.000306108      8.99520     -45.5408 
3.75466e-05      4.81040     -83.5512 
0.000896705      12.6346     -38.7023 
7.13820e-05      10.6925      120.211 
-3.73399e-05      9.82930     -87.5498 
7.31446e-05      12.4030      135.588 
-7.15170e-05      6.98193     -178.688 
0.000144289      11.3383     -56.0018 
-3.70193e-05      9.02014     -86.1840 
0.000258775      5.68802     -113.413 
-7.28665e-05      10.1675     -10.4259 
-3.68242e-05      7.99286      146.429 
-0.000227765      9.98234     -120.057 
-0.000587039      8.63330     -121.258 
-0.000140269      5.71824      17.2912 
-0.000680413      12.6508     -128.067 
0.000169265      5.44674     -136.636 
-0.000334788      8.47516     -108.010 
7.07771e-05      5.09560     -112.138 
7.03332e-05      4.83053     -83.5782 
0.000137385      9.00277     -164.144 
0.00115570      13.9899     -43.7830 
0.000104001      6.07221     -137.269 
-6.88784e-05      8.68321      134.440 
7.03277e-05      6.22003      151.376 
-0.000132959      9.47512      138.165 
-3.53556e-05      10.2209     -19.0735 
-0.000485606      13.8471     -45.9946 
6.86861e-05      5.19605     -81.5879 
-6.77623e-05      12.1099      128.630 
-9.91507e-05      9.84795     -87.6724 
0.000197844      10.2456      9.66377 
-3.48224e-05      9.68680     -121.490 
0.000450875      11.3551     -56.0590 
0.000192859      12.3891      135.525 
-6.65932e-05      11.0021      132.128 
0.000162833      11.4112     -57.0916 
-9.96342e-05      11.0029     -154.368 
-3.43271e-05      9.03828     -86.3204 
6.69847e-05      8.70660      99.7854 
3.42172e-05      6.84733     -69.6585 
-3.38851e-05      3.27920     -104.119 
-3.39345e-05      8.60410      88.2708 
6.46515e-05      6.96358     -7.75988 
-6.58508e-05      7.81145      84.8579 
-6.65962e-05      2.14720     -117.765 
0.000191365      5.06921     -112.012 
6.65046e-05      11.2845     -30.9278 
0.000217814      6.84031     -69.8177 
9.57539e-05      5.57378      160.070 
-6.48156e-05      7.13580      144.929 
-9.58362e-05      8.19662      50.4456 
9.68886e-05      6.22976      151.212 
3.29891e-05      9.83954      25.7853 
3.29490e-05      10.4074      169.704 
-9.40992e-05      3.95721      38.4324 
-0.000232004      8.69236     -40.7993 
-0.000151680      5.71248      17.1044 
0.000207527      5.55474      159.998 
-3.24851e-05      10.2024     -19.1093 
3.25081e-05      11.4768     -27.5033 
3.24231e-05      11.9819     -31.8327 
0.000174249      11.5389     -31.1005 
9.49469e-05      9.81317      25.7284 
-0.000181563      3.55267      97.7690 
6.22812e-05      10.3846      169.794 
6.30516e-05      8.92556     -20.8729 
-6.20038e-05      7.99562      150.808 
6.09157e-05      3.51653     -139.153 
6.20566e-05      13.6280     -132.918 
-3.18110e-05      8.58328      88.3969 
6.23326e-05      5.19313     -81.8090 
0.000385055      6.08656     -137.393 
3.17665e-05      11.9926     -31.9149 
-3.14691e-05      9.27048      119.609 
-6.17306e-05      7.31140     -107.840 
0.000347645      11.3438     -56.1438 
-0.000208647      1.93708      163.805 
-0.000315331      11.0117     -154.273 
0.000565575      11.2745     -30.8428 
0.000179881      5.32654     -112.522 
9.01767e-05      11.9498      148.970 
-0.000332457      12.1125      128.498 
9.16450e-05      12.0034     -31.9970 
-9.12431e-05      9.54883      54.9774 
-6.11899e-05      1.56822     -174.150 
6.01614e-05      10.2806      168.100 
-6.01180e-05      12.2462      48.8408 
0.000204900      9.79492      25.7798 
6.03314e-05      6.21267      151.126 
-3.00974e-05      11.1809     -119.822 
0.000468584      9.23284      102.891 
-3.00587e-05      11.5397      148.321 
-0.000115542      10.9885      132.049 
0.000422002      10.0778      160.161 
0.000116985      11.3909     -147.622 
2.96594e-05      10.3087      161.566 
-8.66063e-05      11.1708     -119.732 
-0.000421264      11.5499      148.239 
-5.89608e-05      10.1708     -19.2918 
-0.000191213      10.5036     -150.701 
-0.000227708      9.53722      55.0770 
-0.000167829      7.71198     -131.003 
0.000223261      10.2975     -167.663 
5.59444e-05      9.21530     -108.866 
5.65772e-05      8.36885     -50.5266 
0.000248286      12.0137     -32.0759 
2.91249e-05      5.73607      105.782 
2.91417e-05      8.91431     -21.0347 
0.000139992      6.40039      148.544 
-0.000224184      12.9334      48.3209 
5.66353e-05      9.24033     -108.946 
-0.000272347      10.7914      20.6176 
0.000137605      6.79179     -46.9117 
-2.89389e-05      10.4860     -150.647 
0.000139125      10.2377      168.161 
-5.59822e-05      6.16918      157.509 
-5.69917e-05      1.44581     -165.574 
-2.86419e-05      8.17713      144.053 
2.85739e-05      9.01624     -164.297 
0.000432518      11.4080     -147.676 
5.60664e-05      9.02717     -166.026 
-2.84642e-05      7.15177      145.019 
-0.000138496      10.0755     -71.9604 
-0.000164838      10.1524     -19.3282 
0.000134881      9.16874      66.0656 
0.000297107      11.1881     -54.6044 
0.000292971      10.3026      161.669 
0.000163700      3.29450     -150.948 
0.000242998      10.7822      122.041 
5.46079e-05      4.91229     -80.1578 
8.22643e-05      9.28562     -172.202 
-2.77951e-05      6.10288      9.43337 
2.77606e-05      11.6630      42.6377 
0.000185013      11.9603      148.887 
0.000107913      11.5061     -32.7231 
-0.000266316      11.9564      142.612 
-0.000159014      11.1533     -119.784 
-2.74384e-05      5.73759      17.2311 
2.74611e-05      5.20694     -82.2728 
-5.38630e-05      1.42619     -165.372 
0.000133323      7.98499      24.2528 
0.000132351      9.03574     -164.332 
2.70376e-05      9.46890     -165.816 
2.69460e-05      6.96624     -7.91888 
-0.000106717      12.1735      39.6003 
-0.000132327      9.52607      55.1733 
-0.000132709      12.9486      48.3805 
-0.000263036      12.6224     -128.051 
-5.29324e-05      9.21277     -116.567 
2.66444e-05      11.5326     -33.8286 
-0.000183911      10.0940     -71.9947 
2.66187e-05      9.94973      61.9410 
-2.65977e-05      9.26481      31.4938 
-5.20602e-05      3.57275      97.7251 
-0.000209874      11.6505      32.7361 
-0.000288443      13.6764      47.7263 
2.64387e-05      9.50254     -165.993 
5.22701e-05      8.65726     -22.1187 
-5.23948e-05      9.54031     -24.5230 
-0.000131107      12.1892      39.5396 
0.000235536      12.0416     -32.1064 
-5.24232e-05      7.33780     -131.684 
-2.64156e-05      11.5665      148.290 
-0.000157284      9.56914     -24.3160 
5.25826e-05      11.3738     -32.4329 
-7.85986e-05      12.9158     -141.729 
-7.85531e-05      13.3607      130.629 
-0.000104311      9.35994      150.422 
0.000104605      9.51732     -166.141 
-2.62478e-05      1.40660     -165.163 
-0.000144531      9.55069     -24.3661 
-0.000104443      12.1650     -143.829 
2.61117e-05      11.7972     -35.1983 
2.60918e-05      11.3909     -32.3783 
-7.81628e-05      10.7843      20.5168 
2.60028e-05      8.99064     -177.197 
-2.60145e-05      7.34001     -131.465 
5.19979e-05      11.2919     -30.7901 
-2.60355e-05      13.3739      130.695 
-2.59415e-05      9.95075      82.2597 
2.59007e-05      3.02400     -154.955 
-2.59326e-05      10.7115      68.9939 
0.000140428      11.4631      141.090 
0.000179683      11.4916      141.075 
0.000205956      10.2682      9.75694 
0.000119560      13.3322      139.380 
-0.000309045      10.5510      157.957 
2.92679e-05      11.2040     -54.6622 
-0.000133588      9.70563     -21.0133 
0.000106188      9.64413     -125.209 
2.75290e-05      10.0897     -48.6966 
-7.84987e-05      8.56249      88.5286 
5.24128e-05      13.3349      139.500 
5.19230e-05      10.7261     -46.9646 
5.20702e-05      9.19868      129.087 
5.14341e-05      11.6481      42.7052 
0.000102086      9.95893      61.8419 
5.14942e-05      11.4759      141.011 
-2.59302e-05      9.47584      55.4038 
2.57806e-05      10.0769     -48.7800 
2.58064e-05      8.45433     -174.841 
2.54313e-05      11.1386      149.937 
2.53047e-05      9.12654     -108.395 
2.52081e-05      8.93817      154.984 
2.50157e-05      10.2185     -55.6891 
-2.49388e-05      10.2357     -170.667 
-2.48291e-05      8.73386      163.642 
-2.49459e-05      9.01483     -55.3932 
! Tentative model.
! Flux (Jy) Radius (mas)  Theta (deg)  Major FWHM (mas)  Axial ratio   Phi (deg) T \
! Freq (Hz)     SpecIndex
-2.61044e-05      9.69672     -13.7210 
