! Center RA: 12 21 31.69052,  Dec: +28 13 58.50011 (2000.0)
! Established model.
! Flux (Jy) Radius (mas)  Theta (deg)  Major FWHM (mas)  Axial ratio   Phi (deg) T \
! Freq (Hz)     SpecIndex
 0.0355901    0.0721110     -33.6901 
 0.0295958    0.0848528     -45.0000 
 0.0146604     0.100000      36.8699 
 0.0161428     0.113137      45.0000 
0.00852474     0.215407      68.1986 
0.000851815     0.196977      66.0375 
0.000400297    0.0894427      26.5651 
0.00117249    0.0632456     -18.4349 
0.00472655     0.234094      70.0169 
0.00236864     0.100000     -36.8699 
0.00504038     0.113137     -45.0000 
0.00798474     0.247386      75.9638 
0.00222099     0.263059      81.2538 
0.000971845     0.128062     -38.6598 
0.000465408     0.340588      93.3665 
0.00959815     0.141421     -45.0000 
0.000449201     0.362215      96.3402 
0.00346414     0.382099      96.0090 
0.00120358     0.243310      80.5377 
0.00106684     0.605310      97.5946 
0.00362754     0.625140      97.3524 
0.00242875     0.228035      74.7449 
0.00388546     0.100000      53.1301 
0.00390595     0.401995      95.7106 
0.00111010     0.602993      95.7106 
0.000351580     0.622896      95.5275 
0.000330534     0.208806      73.3008 
0.000448309     0.713863      101.310 
0.000438512     0.632456      108.435 
0.000651598     0.737564      102.529 
0.000221304     0.601332      93.8141 
0.000844071     0.580345      91.9749 
0.000662810    0.0632456      71.5651 
0.00138864     0.761577      103.671 
0.000922354     0.639062      110.136 
0.00138603     0.169706     -45.0000 
0.00147380      2.32835      103.917 
0.000810187     0.141421      45.0000 
0.000266699     0.380526      93.0128 
0.000439253     0.580000      90.0000 
9.07381e-05      2.32362      103.438 
0.000169565    0.0447214      63.4349 
0.000356929     0.560000      90.0000 
0.000245478     0.156205      39.8056 
0.00134167     0.203961      78.6901 
0.000146612     0.667533      98.6156 
0.000713587     0.710211      99.7276 
0.000279596     0.184391      77.4712 
0.000912889     0.170880      69.4440 
0.000136703     0.729931      99.4623 
0.000528901     0.753127      100.713 
0.000623285     0.583095      95.9061 
0.000364888      2.48387      104.931 
0.000337896      2.67761      103.829 
0.00117466      2.68246      104.243 
0.000722245      2.48910      105.376 
0.000621052     0.772787      100.437 
0.000586659      2.46455      105.051 
0.000821271    0.0894427     -26.5651 
0.000562849     0.144222      56.3099 
0.000802081     0.792464      100.176 
0.000112550     0.585491      97.8533 
0.000221898     0.161245      60.2551 
0.000109192     0.400000      90.0000 
0.000827189     0.116619     -30.9638 
0.000216112      2.46982      105.499 
0.000424961     0.815843      101.310 
0.000315502      2.45406      109.026 
0.000541725     0.380526      86.9872 
0.000203801     0.859069      102.095 
0.000658074      2.18833      108.104 
0.000101956     0.655134      102.339 
0.000200852      2.46065      109.466 
0.000200322      1.08240      117.512 
0.000297518      2.69236      103.314 
9.92106e-05     0.628013      99.1623 
0.000936371      1.09179      118.443 
9.78125e-05     0.878635      101.821 
0.000554089      2.21359      108.435 
0.000190006     0.156205      50.1944 
9.67775e-05      2.44180      109.622 
9.66629e-05     0.674685      101.976 
0.000904803     0.144222     -33.6901 
0.000191521      2.68782      102.899 
0.000362945     0.400500      87.1376 
0.000188158     0.902441      102.804 
0.000184026     0.561427      94.0856 
9.43591e-05      2.46739      109.904 
0.000367888      2.70296      102.391 
9.24511e-05      2.44859      110.063 
9.17935e-05     0.694262      101.634 
0.000266005      2.47427      110.339 
9.04976e-05     0.898221      101.560 
9.04270e-05      2.62084      105.945 
0.000176146      2.72250      102.301 
0.000340016     0.921954      102.529 
0.00106941      1.10145      119.358 
0.000171138     0.540370      92.1211 
0.000332094      2.71831      101.889 
8.54336e-05      2.64560      106.243 
8.50390e-05      2.45552      110.501 
0.000324997      2.48129      110.772 
0.000163352      2.37756      102.633 
0.000845585     0.172047     -35.5377 
0.000321775      2.22000      108.925 
0.000163755      2.73788      101.802 
0.000238918     0.560357      92.0454 
0.000310146     0.144222      33.6901 
8.06825e-05      2.87673      103.263 
7.97340e-05     0.945939      103.449 
7.94771e-05      2.90083      103.557 
7.87138e-05      2.73386      101.392 
0.000229568      2.92027      103.465 
7.76635e-05      2.35805      102.740 
0.000227717     0.941488      102.265 
0.000446917      2.48845      111.203 
0.000450297      1.11140      120.256 
0.000150914      2.22657      109.411 
0.000217833      2.35372      102.265 
0.000218117      2.71426      101.476 
0.000319624      2.93973      103.374 
7.36263e-05      2.09619      105.495 
0.000143429      2.26592      110.674 
7.24832e-05      1.04957      120.964 
7.22412e-05     0.937443      101.070 
0.000202388      1.12872      119.745 
0.000211927      1.98494      102.216 
0.000645786     0.161245      29.7449 
0.000275746      1.03247      121.535 
7.08103e-05     0.965402      103.173 
0.000703959     0.362215      83.6598 
0.000320610      1.14612      119.249 
0.000274845      2.51436      111.463 
0.000138486      1.17337      119.624 
0.000136576      2.85748      105.009 
0.00192618     0.184391     -40.6013 
0.000201793      2.95919      103.285 
6.84937e-05      1.98081      101.650 
6.83347e-05     0.961041      102.011 
0.000129958      2.72998      100.981 
0.000260918      2.29896      111.431 
6.75902e-05      1.19080      119.148 
0.000515024      1.95724      101.195 
0.000473922     0.726911      97.9072 
0.000322324      1.21803      119.511 
0.000129470      2.74962      100.901 
6.61911e-05     0.957079      100.840 
6.59690e-05      2.73233      107.904 
0.000190718      1.01548      122.125 
0.000127264     0.540370      87.8789 
0.000256524      2.49576      111.631 
0.000251082      1.20416      94.7636 
0.000791006      1.04307      122.471 
0.000128586      2.87680      104.906 
0.000125053      2.36913      101.689 
0.000305238      2.97866      103.196 
0.000179376      1.22589      95.6176 
0.000233471      1.22409      94.6859 
6.20768e-05      2.81460      109.079 
0.000348468      2.30634      111.894 
0.000407276      1.23548      119.055 
0.000118686      2.88201      105.290 
0.000120239      2.52175      111.886 
0.000348682      1.93380      100.729 
0.000118519      2.82121      109.463 
5.96228e-05      3.14821      103.595 
0.000170846     0.560357      87.9546 
0.000363788      2.74591      100.491 
5.87923e-05      3.00273      103.481 
0.000170840      2.38479      101.121 
0.000171516      3.16765      103.510 
5.80088e-05      2.47718      111.801 
0.000217528      2.50320      112.056 
0.000606304     0.178885      26.5651 
0.000112555      2.84675      109.708 
0.000319289      1.62099      99.2299 
0.000215192      3.18710      103.426 
0.00122498     0.212603     -41.1859 
0.000349453     0.541479      85.7636 
0.000190367      2.98329      103.570 
0.000105909      2.25610      102.804 
0.000211212      2.85356      110.086 
0.000107483      1.18271      93.8785 
5.42943e-05      2.03961      101.310 
0.000153795      2.45862      111.975 
0.000405092      1.25300      118.610 
0.000155263      1.91416      100.840 
0.000350230      2.31387      112.353 
0.000103533      2.06320      101.746 
0.000101956      2.38101      100.649 
0.000149795      1.16155      92.9609 
0.000463117      2.87924      110.323 
0.000100960      3.19180      103.775 
5.09112e-05      1.24579      95.5275 
0.000197350      3.29521      102.265 
0.000404697      1.02626      123.071 
4.99794e-05     0.996394      100.408 
0.000280888      1.64073      99.1179 
9.45301e-05      2.90131      105.186 
4.90071e-05      2.25175      102.308 
0.000185319      1.89082      100.359 
0.000370476      3.17238      103.861 
4.82324e-05      2.40067      100.561 
0.000269402      2.48467      112.230 
4.79529e-05      3.00746      103.851 
0.000137757      2.05922      101.201 
4.76765e-05     0.724431      96.3402 
8.74384e-05      1.08904      97.3860 
0.000130969      2.23222      102.417 
9.12932e-05      1.16069      91.9749 
0.000134343      3.31904      102.529 
0.000134485      2.39708      100.091 
0.000304512      1.27059      118.179 
0.000173606      1.44347      93.9725 
0.000300765      2.32155      112.810 
8.86687e-05      1.06921      97.5238 
0.000108289     0.998599      122.735 
8.84916e-05     0.216333      33.6901 
8.81915e-05      3.34293      102.789 
8.71201e-05     0.543323      83.6598 
0.000123337      2.90661      105.566 
0.000250756      3.30151      107.996 
0.000168025     0.743236      113.806 
0.000836248      2.74233      100.081 
8.25869e-05      1.89452      100.954 
4.30740e-05     0.840238      88.6361 
0.000664387      3.63830      103.349 
0.000354668      2.07885      101.094 
0.000164243     0.288444      33.6901 
0.000231615      2.51078      112.479 
0.000576187      1.64402      99.8061 
4.21641e-05      1.14018      91.0051 
0.000120474      3.20063      109.341 
0.000270357      2.39366      99.6197 
8.02374e-05     0.702567      94.8991 
0.000123043      1.87115      100.469 
0.000119280      1.14000      90.0000 
4.09257e-05     0.523450      83.4181 
0.000230776      1.28825      117.759 
0.000189604      2.88624      110.695 
0.000250917     0.526118      81.2538 
0.000287620      2.32938      113.263 
0.000179318     0.724983      114.444 
0.000110607      1.42352      94.0283 
3.89034e-05     0.800999      87.1376 
3.87014e-05      2.52927      112.306 
0.000219487     0.305287      31.6075 
0.000110174      3.31475      102.191 
3.83921e-05      2.30313      113.003 
0.000112000      1.87489      101.070 
0.000213343      3.32674      108.217 
0.00165601      3.96812      103.406 
0.000144750      1.14018      88.9949 
0.000210671      3.18176      109.460 
3.73992e-05     0.170880      20.5560 
0.000101610      2.63591      101.821 
3.68960e-05      2.20844      102.022 
0.000102351      1.09179      98.4270 
0.000610557      1.12161      121.139 
3.59913e-05     0.701142      93.2705 
0.000134761      2.55539      112.551 
3.58415e-05      1.29769      118.540 
0.000334139      1.10454      121.675 
6.94759e-05      1.94535      104.893 
3.50678e-05     0.802247      85.7108 
3.50638e-05      2.21269      102.529 
6.94321e-05      1.30599      117.350 
6.30233e-05     0.751532      115.201 
0.000254713      2.39040      99.1471 
0.000189887      2.91204      110.925 
3.42471e-05     0.364966      80.5377 
3.39046e-05      3.29102      101.925 
0.000278717     0.322490      29.7449 
0.000249950      1.31529      118.124 
3.35737e-05     0.782304      85.6013 
0.000188447      1.14070      87.9904 
3.32650e-05      1.92094      104.470 
0.000259635      1.64754      100.491 
3.29084e-05     0.680294      91.6847 
9.44210e-05      3.28694      101.583 
0.000184448      1.92603      105.046 
6.46689e-05      3.34574      108.110 
0.000125131      2.35567      113.518 
5.92037e-05     0.184391      12.5288 
0.000175288      1.89874      113.595 
6.14501e-05      2.18888      102.131 
0.000206346      3.18848      109.799 
6.15643e-05     0.660303      91.7357 
0.000112222      1.42225      93.2245 
0.000142052     0.733485      115.866 
3.11896e-05      2.49231      112.655 
8.91319e-05     0.764199      83.9910 
5.95677e-05      3.37099      108.327 
3.07146e-05     0.340588      86.6335 
0.000299148      1.62985      119.396 
0.000117822      2.58155      112.791 
5.93727e-05     0.509902      78.6901 
5.98942e-05      3.38999      108.221 
3.00781e-05      1.11158      98.2759 
8.22551e-05     0.981835      123.366 
8.11721e-05      2.65548      101.733 
2.92159e-05      3.45404      107.176 
0.000138672      2.38202      113.767 
8.38901e-05      3.28299      101.241 
0.000211837      1.14158      86.9872 
0.000133679     0.320000      90.0000 
0.000326745      2.38730      98.6732 
2.82859e-05      2.86810      105.781 
0.000221344      2.09848      100.989 
8.03045e-05      1.11463      99.2933 
8.10798e-05      3.47315      107.078 
0.000226137      2.76203      100.008 
0.000134923      1.93132      105.619 
0.000257023     0.954149      123.024 
2.79335e-05     0.640000      90.0000 
8.05563e-05      2.93789      111.150 
2.76557e-05     0.494773      75.9638 
8.11468e-05      3.41526      108.435 
0.000197453      2.60776      113.025 
2.72490e-05      1.32378      116.952 
5.35890e-05     0.746726      82.3039 
0.000238595     0.340000      28.0725 
2.67753e-05      2.86273      105.396 
0.000101970      3.27915      100.899 
0.000209128      1.33297      117.719 
7.60405e-05     0.514198      76.5043 
0.000175324      3.16967      109.921 
2.59300e-05      3.43424      108.329 
5.10627e-05     0.915860      121.608 
5.05967e-05     0.749667      80.7890 
9.94353e-05      2.40840      114.011 
0.000496307      2.84345      105.503 
0.000210417      1.90672      105.202 
7.45785e-05      3.44058      108.646 
4.81074e-05      2.96378      111.371 
0.000313533      1.90683      114.146 
4.82391e-05     0.733485      78.9965 
2.39826e-05      3.15297      103.948 
4.75074e-05      3.51830      110.289 
0.000112391     0.300666      93.8141 
2.39008e-05      2.94517      111.512 
0.000111589      1.13772      100.125 
9.10228e-05      3.27542      100.555 
0.000174391      2.39015      114.206 
0.000172502      1.12446      84.8978 
0.000194602     0.706824      115.115 
9.65649e-05      2.12198      101.416 
8.96500e-05      3.47908      107.393 
4.56062e-05     0.500000      73.7398 
2.29155e-05     0.718053      77.1250 
0.000110501      1.67093      101.041 
6.72585e-05      3.52528      110.594 
6.61023e-05     0.708802      73.6105 
0.000122286      2.97113      111.730 
4.17512e-05      1.44222      93.1798 
0.000302878      2.38437      98.1981 
2.15376e-05      3.13356      104.036 
0.000210429      3.55106      110.783 
6.24945e-05     0.695701      71.5650 
0.000252416      2.63401      113.256 
3.97096e-05      1.28141      92.6838 
0.000119041      3.27182      100.211 
0.000475419      3.49817      107.295 
0.000311944      1.91207      105.781 
2.05618e-05     0.505964      71.5651 
3.23351e-05      1.66721      100.366 
0.000124604      2.11811      100.886 
0.000190043     0.357771      26.5651 
0.000161683      1.14140      101.113 
0.000251995     0.302655      97.5946 
3.92168e-05      3.11416      104.125 
7.79599e-05     0.683520      69.4440 
0.000122495    0.0600000      180.000 
7.56858e-05      2.37192      114.404 
1.94740e-05     0.487032      70.8210 
1.93959e-05      1.34239      118.474 
1.92900e-05      1.64730      119.055 
0.000137822      1.12641      83.8845 
1.88927e-05      1.88223      104.775 
0.000215147      1.65711      119.659 
0.000107888      3.17654      110.260 
0.000412726     0.690797      67.8906 
3.64460e-05      1.35484      121.109 
1.83741e-05      3.09477      104.216 
0.000140373      2.87507      101.232 
1.81860e-05      1.46123      92.3533 
0.000133701      1.80488      102.804 
0.000160929      3.26833      99.8658 
0.000159321      2.39842      114.642 
1.76696e-05      2.99713      111.943 
1.76370e-05     0.493964      68.6294 
1.74444e-05      1.59524      97.9269 
5.04858e-05      1.36528      121.827 
1.71590e-05      1.46055      91.5694 
3.31620e-05      2.97859      112.087 
3.02576e-05      3.33305      108.544 
1.67740e-05      1.52053      91.5074 
1.66079e-05      1.13208      122.005 
4.64322e-05      3.11910      104.482 
4.52118e-05      3.65776      103.276 
0.000233954      3.55820      111.084 
6.33733e-05      1.52013      90.7538 
9.62193e-05      2.82418      105.611 
1.62012e-05      2.41661      114.444 
8.68568e-05      2.11443      100.353 
1.60407e-05     0.475395      67.7510 
0.000350401      2.38160      97.7218 
3.11517e-05     0.612209      51.6325 
4.62838e-05      1.37594      122.535 
7.42377e-05      3.00466      112.297 
0.000304257      1.14543      102.095 
0.000168434     0.688767      115.821 
0.000138503     0.200998      5.71059 
2.95037e-05      1.12872      82.8750 
0.000201200      3.51727      107.199 
5.76446e-05     0.624820      50.1944 
8.45134e-05      1.52000      90.0000 
8.30358e-05      1.38679      123.232 
0.000330835      8.45328      105.647 
0.000154025      3.26497      99.5200 
7.53999e-05    0.0824621      165.964 
0.000118766      3.97281      103.686 
7.65434e-05      1.11158      81.7241 
0.000100130      3.09974      104.574 
3.97351e-05      2.38025      114.842 
4.98587e-05      3.15778      110.386 
3.85783e-05      2.11092      99.8193 
7.60758e-05     0.622896      47.6026 
6.23476e-05      3.01231      112.649 
1.33614e-05     0.465188      64.5367 
6.86578e-05      2.72265      100.154 
8.12115e-05      1.08757      122.229 
2.53902e-05      1.50013      89.2361 
2.50973e-05      2.33555      114.809 
8.40715e-05      1.39786      123.917 
3.67817e-05      3.71053      101.189 
1.26767e-05      1.38058      91.6603 
3.51776e-05     0.375766      25.2011 
1.23474e-05      1.73770      101.957 
0.000226287      3.99224      103.619 
2.40372e-05      1.52013      89.2462 
2.83145e-05      8.81092      105.267 
1.20417e-05      8.83550      105.357 
0.000127248     0.240832     -41.6335 
1.18952e-05      2.40682      115.074 
6.44285e-05      1.66709      120.256 
5.48603e-05      2.10761      99.2836 
0.000394102      8.83022      105.232 
3.82348e-05     0.456508      61.1892 
8.60271e-05     0.636553      46.2730 
2.26517e-05      2.64197      113.654 
6.44847e-05      1.50053      88.4725 
2.27872e-05      2.36212      115.046 
4.31169e-05      3.71446      101.491 
1.13658e-05      1.36059      91.6847 
0.000132636      3.56545      111.384 
9.30599e-05      6.81017      100.320 
6.99636e-05      1.11463      80.7067 
0.000108385      1.40911      124.592 
9.09811e-05      3.02007      112.999 
2.11562e-05      1.88743      105.362 
2.12920e-05     0.101980      168.690 
5.86404e-05      2.37899      97.2445 
3.16888e-05      2.34401      115.253 
0.000252026      9.48458      103.040 
3.99570e-05      2.10447      98.7462 
0.000157575      4.92687      108.214 
0.000233021      4.94587      108.142 
0.000283455      7.21346      101.840 
7.29099e-05     0.698570      66.3706 
0.000231129      2.35915      97.3058 
0.000117776     0.609590      131.009 
3.80618e-05      2.38872      115.278 
0.000259677      6.27936      124.095 
0.000199059      1.16927      102.848 
0.000119940      1.88860      114.394 
6.40527e-05     0.650538      45.0000 
2.87100e-05      1.48122      87.6785 
0.000127733      8.44791      105.517 
6.67967e-05      1.82888      103.276 
0.000144599      1.07070      122.800 
0.000244685      3.99700      103.897 
0.000123286      7.21759      101.995 
0.000134283      9.16543      107.526 
3.66234e-05      6.11110      107.130 
1.83974e-05      2.10152      98.2072 
2.49432e-05     0.393954      23.9625 
0.000119581      2.20291      119.358 
8.23548e-05      1.48216      86.9059 
9.03468e-06      1.85785      104.335 
3.42799e-05      3.02794      113.348 
8.95506e-06      2.83817      105.113 
0.000150368     0.269072     -41.9872 
3.38882e-05      6.80661      100.154 
2.57027e-05      2.11858      97.5946 
0.000113289      6.13612      107.254 
4.40745e-05     0.662118      115.017 
8.78034e-06      1.64985      120.606 
0.000154851      1.40428      125.727 
2.83097e-05      3.26172      99.1735 
8.50489e-06      9.14637      107.563 
5.07277e-05      2.37065      115.484 
2.47812e-05      1.36059      114.305 
8.41610e-06      1.09836      79.5085 
1.65848e-05     0.322490      97.1250 
9.26060e-05      9.15242      107.683 
5.44480e-05     0.664831      43.7811 
0.000190648      3.52755      97.1653 
1.55856e-05      3.07539      104.307 
0.000179716      4.16255      105.038 
3.15595e-05      3.52324      107.509 
8.60819e-05      1.10218      78.4862 
8.14135e-06      2.10238      101.524 
5.04343e-05      9.20178      101.408 
4.73837e-05      1.35248      113.532 
0.000112185      6.20310      112.762 
3.62087e-05      3.00958      113.499 
0.000111231      6.91213      100.335 
0.000105195      6.29594      123.993 
7.75691e-06      2.11603      97.0578 
4.13625e-05      3.30775      108.325 
7.70445e-06      2.73890      99.6687 
4.91574e-05      1.64305      121.562 
6.96503e-05      1.98010      90.5787 
0.000288082      5.72189      121.857 
2.87187e-05      1.62788      100.620 
0.000103366      6.44888      100.543 
3.78064e-05     0.624820      129.806 
4.23312e-05      6.22929      112.860 
2.15503e-05      8.44995      103.970 
0.000171402      9.17148      107.645 
2.14743e-05      2.71919      99.7394 
6.82792e-05      8.43403      105.684 
0.000296625      8.00302      99.2034 
1.41849e-05     0.678822      45.0000 
0.000173260      6.11703      107.309 
1.38516e-05      1.46342      86.0818 
0.000102208      3.28877      108.435 
0.000481144      8.35476      99.5074 
2.74423e-05      4.61775      118.452 
0.000161695      6.49215      113.801 
6.87578e-06     0.679412      42.6141 
1.35589e-05      8.46456      103.806 
3.91952e-05      1.48337      86.1345 
3.86998e-05     0.693109      43.8309 
4.15628e-05     0.411825      150.945 
0.000201332      4.63534      118.334 
1.21014e-05      4.93315      108.435 
0.000290843      6.55881      112.029 
1.90116e-05      2.96385      103.661 
5.77916e-05      1.65130      101.174 
0.000228521      8.41867      107.703 
2.76203e-05      3.57279      111.682 
3.08219e-05      8.45981      103.675 
2.37081e-05      3.05601      104.400 
0.000219249      1.18878      102.633 
6.41261e-06     0.456946      66.8014 
2.40843e-05      1.80056      102.184 
7.28197e-05      6.29060      124.246 
1.24222e-05      3.01761      113.847 
6.31345e-06     0.412311      22.8337 
0.000193051     0.282843     -45.0000 
0.000125408      6.30714      124.144 
4.77765e-05      4.15740      104.772 
2.85424e-05     0.682642      95.0425 
0.000111649      4.62588      118.116 
7.69397e-05      9.20576      101.530 
0.000131026     0.707672      42.7094 
4.47337e-05      1.62604      121.931 
2.14520e-05      2.98804      103.943 
5.86123e-06      2.84788      100.521 
2.66724e-05      2.99933      114.001 
2.18857e-05      8.47455      103.512 
5.63080e-06     0.461736      72.3499 
6.83931e-05      3.01231      104.221 
5.07914e-05      6.57343      113.679 
5.50601e-06     0.672309      112.751 
1.07616e-05      1.78101      102.319 
1.56494e-05      1.42056      125.256 
3.19240e-05      1.08167      123.690 
2.14761e-05     0.430813      21.8014 
7.10136e-05      2.21278      119.809 
4.99359e-05      1.10635      77.4712 
1.03287e-05      1.41605      126.384 
1.50441e-05     0.456070      74.7449 
1.48367e-05      4.95213      108.362 
7.20460e-05      6.46492      100.337 
5.21192e-06      2.82461      100.196 
2.88279e-05      6.93181      100.305 
5.14605e-05      4.53665      110.113 
7.40639e-05      8.48936      103.349 
3.43511e-05      5.69435      121.792 
1.28960e-05      1.75727      101.821 
9.69658e-05      4.92394      104.826 
2.82727e-05     0.429418      152.241 
1.98004e-05      5.62185      120.579 
4.99953e-06      1.67487      101.712 
2.30556e-05      2.78173      99.9364 
0.000101123      1.43220      125.910 
4.94402e-06      4.92130      109.466 
9.46600e-05      6.47386      113.873 
3.16489e-05      1.77685      101.689 
8.59213e-05      3.52511      96.8428 
6.26573e-05      5.62896      120.300 
6.44593e-05      9.48008      102.922 
9.37989e-06      8.43945      105.815 
9.53344e-06      5.61170      120.403 
7.47257e-05      6.59175      113.609 
1.80044e-05     0.684690      96.7098 
2.94426e-05      1.88043      113.839 
1.35847e-05      1.65529      101.853 
4.67098e-06      1.38130      92.4896 
5.13452e-05      5.70491      121.963 
5.96228e-05      1.98000      90.0000 
6.60254e-05      6.12301      107.488 
4.55123e-06      3.00752      114.349 
1.32246e-05      6.88889      100.201 
1.68234e-05      2.75862      99.5989 
4.08800e-05      1.40228      93.2705 
1.27494e-05      8.42021      105.852 
5.70146e-05      6.30187      124.396 
1.64189e-05      2.98931      114.507 
1.64313e-05     0.683520      110.556 
4.10808e-05      6.08266      119.768 
8.49532e-06      4.92800      109.685 
3.24201e-05     0.438634      155.772 
4.20185e-06      3.55421      111.801 
4.18128e-06     0.451221      77.1957 
8.21911e-06      3.03664      104.494 
1.80169e-05      3.93395      108.066 
7.60068e-05      5.61890      120.124 
1.95547e-05      6.90857      100.171 
5.66870e-05     0.311127     -45.0000 
1.15408e-05      4.94684      109.607 
1.58892e-05      6.59979      113.769 
1.47503e-05     0.449444      20.8545 
2.27714e-05      5.71552      122.133 
7.70013e-06     0.664831      96.9112 
1.51264e-05      2.77834      99.5301 
4.47059e-05      6.10003      119.675 
7.62607e-06      3.56169      112.100 
7.57408e-06      5.60161      120.227 
2.16626e-05      9.49958      102.895 
2.25054e-05      8.46990      103.380 
7.23463e-05      7.99985      99.0620 
0.000419205      7.72865      111.719 
9.14381e-05      5.17795      110.815 
6.79343e-05     0.466905      80.1342 
5.15585e-05      7.20938      101.684 
7.71989e-06      2.36136      116.131 
2.19362e-05      3.01582      114.696 
2.18603e-05      2.80143      99.8658 
2.17803e-05      2.37933      115.919 
2.86626e-05      1.06508      124.287 
7.46743e-06     0.664831      111.161 
7.44064e-06      1.38232      93.3178 
2.11852e-05      1.75328      101.182 
1.42870e-05      1.09636      75.2032 
2.10069e-05      6.19539      112.591 
2.80079e-05      6.31839      124.294 
1.41037e-05     0.637809      131.186 
2.08955e-05      5.68795      122.069 
2.10523e-05      9.17852      107.369 
1.39217e-05      3.31409      108.654 
7.02337e-06      8.37186      100.182 
1.37094e-05      8.48476      103.217 
1.37449e-05      6.11742      119.582 
! Tentative model.
! Flux (Jy) Radius (mas)  Theta (deg)  Major FWHM (mas)  Axial ratio   Phi (deg) T \
! Freq (Hz)     SpecIndex
3.79884e-05      7.20938      101.684 
2.55600e-05      9.20576      101.530 
1.91506e-05      1.98000      90.0000 
3.81581e-05      6.55134      111.866 
6.70771e-06      1.38232      93.3178 
4.39052e-05      5.17795      110.815 
3.20523e-05      6.31839      124.294 
1.90881e-05      6.93181      100.305 
1.27675e-05      2.38160      97.7218 
2.59283e-05      5.61890      120.124 
8.13912e-05      7.72865      111.719 
4.98723e-05      8.35476      99.5074 
1.31446e-05      2.21278      119.809 
6.67329e-06     0.637809      131.186 
3.76530e-05     0.311127     -45.0000 
3.75890e-05      4.64353      118.000 
1.28312e-05      3.99700      103.897 
5.63199e-05      7.99985      99.0620 
3.14523e-05      8.83022      105.232 
3.15802e-05      6.11742      119.582 
1.27200e-05      3.01582      114.696 
6.62815e-06      6.49215      113.801 
3.11297e-05      1.43220      125.910 
1.89392e-05      3.01231      104.221 
6.61167e-06      1.09636      75.2032 
2.53568e-05      8.48476      103.217 
2.49041e-05     0.466905      80.1342 
2.49964e-05      5.68795      122.069 
3.10970e-05      9.17852      107.369 
2.51213e-05      3.93395      108.066 
2.50049e-05      1.18878      102.633 
1.26239e-05      4.53665      110.113 
1.87938e-05     0.449444      20.8545 
3.11428e-05      6.59175      113.609 
2.51951e-05      3.31409      108.654 
2.50400e-05     0.429418      152.241 
2.50658e-05      8.42477      107.833 
1.87279e-05      1.40357      94.0856 
1.26805e-05      8.37186      100.182 
1.84443e-05      9.49958      102.895 
2.45707e-05      4.94328      104.767 
1.85807e-05      6.47386      113.873 
1.26349e-05      2.80143      99.8658 
6.41157e-06     0.200998      5.71059 
1.25208e-05      1.75328      101.182 
1.24384e-05      1.06508      124.287 
2.45418e-05      5.22042      120.888 
1.81460e-05      2.22279      120.256 
1.21901e-05      6.19539      112.591 
1.21426e-05      1.08240      73.9092 
1.21574e-05      6.46492      100.337 
6.17892e-06      8.46990      103.380 
6.12663e-06      7.11848      99.5417 
1.19837e-05      6.32968      124.443 
1.18867e-05      5.60889      119.948 
5.99528e-06      4.18708      105.231 
5.85985e-06      2.38437      98.1981 
