! Center RA: 12 21 31.69052,  Dec: +28 13 58.50011 (2000.0)
! Established model.
! Flux (Jy) Radius (mas)  Theta (deg)  Major FWHM (mas)  Axial ratio   Phi (deg) T \
! Freq (Hz)     SpecIndex
  0.177353    0.0286526     -135.000 
 0.0348230     0.306099      101.310 
 0.0591246    0.0202604     -90.0000 
 0.0563313     0.310708      104.976 
 0.0267746    0.0286526     -45.0000 
 0.0166204     0.334882      107.339 
 0.0112830    0.0202604      0.00000 
 0.0219543     0.316312      108.392 
 0.0152781    0.0397705      0.00000 
0.00298127    0.0446338      26.9958 
0.00722264     0.341468      110.586 
0.000575015    0.0633577      18.6495 
0.00277207    0.0720098      33.5245 
0.00142780    0.0848966      45.0000 
0.000526571    0.0446338     -26.9958 
0.00103090     0.107434      68.2729 
0.00294721    0.0446338     -63.0042 
 0.0105765     0.126477      71.6725 
0.00296120     0.100252      53.2159 
0.00216451     0.367749      112.431 
0.00366304     0.394056      113.929 
 0.0139943    0.0633577     -71.3505 
0.000454278    0.0562440     -45.0000 
0.00314389     0.420241      115.375 
0.00318517    0.0720098     -56.4755 
0.00560327     0.447333      116.608 
0.00474934     0.116465      58.9729 
0.00535147    0.0896014     -63.6495 
0.00161835     0.518891      117.566 
0.000945456     0.145849      74.1761 
0.000303162     0.590559      118.291 
0.00304591     0.714519      107.921 
0.00142191     0.243395      99.4042 
0.00555713     0.733822      107.434 
0.000764322     0.223431      100.253 
0.00208871     0.201375      95.7743 
0.000920635     0.740145      108.931 
0.00242851     0.759338      108.435 
0.00389846     0.180093      90.0000 
0.000282940     0.777872      107.981 
0.000275843     0.815792      107.118 
0.000271445     0.721011      109.453 
0.00240558     0.835176      106.709 
0.00150508     0.690733      112.079 
0.000233347     0.672002      112.728 
0.00209568     0.680086      114.303 
0.00150149     0.829578      105.369 
0.000744975     0.266484      103.019 
0.000552472     0.688672      115.839 
0.00101428     0.671167      116.565 
0.000507080     0.291183      106.006 
0.000505007     0.910591      98.8646 
0.000501868    0.0896014      26.3505 
0.00201757     0.100252      36.7841 
0.00103447     0.907689      97.6009 
0.00118433     0.680116      118.035 
0.00138703     0.689870      119.521 
0.00113051     0.905232      96.3297 
0.000131289    0.0828082     -75.8378 
0.00615108      3.01308      95.3301 
0.000246050     0.840993      107.982 
0.000331356    0.0802914     -90.0000 
0.000239458     0.113549      45.0000 
0.00138783     0.700075      120.964 
0.000841090     0.116465      31.0271 
0.000968480     0.903290      95.0996 
0.000206261     0.873371      110.101 
0.000306056     0.402700      116.565 
0.00193053      1.22161      87.1833 
0.000482398      1.76485      107.826 
0.00140628     0.429314      117.819 
0.00192586    0.0828082     -104.162 
0.00138517     0.710310      122.313 
0.000862742     0.128090      38.8171 
0.00118667      1.75875      107.198 
0.00209329      2.00040      101.533 
0.000504524      2.71238      98.9125 
0.000156781      1.15628      120.109 
0.000862767     0.693272      123.208 
0.000990642     0.456404      118.798 
0.000508607      1.19336      121.291 
0.000501091     0.134233      26.5651 
0.00271079      3.01126      94.9462 
0.000753355      1.24028      88.1624 
0.000449159      1.22122      121.610 
0.00158302     0.665655      122.759 
0.000807805     0.438758      59.9270 
6.48238e-05      1.36592      107.917 
0.000901538      2.71547      99.3192 
0.000572475      1.31037      105.954 
0.00144289     0.483985      119.745 
0.00111927      2.60571      114.011 
0.00192570      2.02437      101.981 
0.000432802      1.25953      122.668 
0.000256207     0.145849      15.8239 
0.000495785      2.11696      112.201 
0.00205873      7.53948      105.068 
0.00102995      1.23980      89.0637 
0.000444844     0.510656      120.559 
0.000178015     0.901714      93.8172 
0.00106702      1.28019      104.460 
0.000707272      1.29804      123.708 
0.00113672      3.00964      94.5762 
0.000376888     0.161111      7.22432 
0.00120918      2.10938      111.692 
0.00174993      2.71883      99.7405 
0.000187055     0.432889      56.3099 
0.000319168     0.621263      123.172 
0.000618985     0.649334      123.690 
0.000767666      1.33715      124.644 
0.000815441      2.83354      107.667 
0.00118103     0.101837     -78.5245 
7.29018e-05     0.181229      6.41879 
0.000166693     0.180093      0.00000 
0.000293030      2.98789      94.2199 
0.000743192     0.632576      145.292 
0.000465358      2.02026      101.418 
0.000930774      2.98651      93.8466 
0.000233376     0.200353      0.00000 
0.000106429      2.61371      114.402 
0.000378620      1.34833      125.326 
0.000211108      1.80090      119.973 
0.000719207      2.82745      107.276 
0.000487069      1.82859      120.206 
0.00104776      7.56360      105.178 
0.000178321      2.63987      114.627 
0.000541707     0.621263      146.828 
0.000897285      2.72233      100.161 
0.00139198      1.30495      105.099 
0.000558753      1.25990      90.0000 
9.26737e-05      2.08337      111.399 
0.000290640     0.220795     -5.26495 
5.48515e-05     0.593248      122.605 
0.000178725    0.0998015     -90.0000 
3.51337e-05     0.608475      152.613 
0.000515008      2.98522      93.4586 
-0.00143576      1.11345      107.776 
0.000235884      1.80275      107.439 
0.000103901      1.61260      119.738 
0.000106227      2.80234      107.018 
7.67591e-05      7.32734      106.657 
1.53306e-05     0.604406      145.777 
0.000129131     0.616029      144.219 
-0.000238581     0.486913      99.4914 
-0.000138294      1.49930      103.104 
0.000137366     0.201375     -5.77433 
-0.000136825      1.11058      76.4802 
9.54275e-05      1.82797      107.832 
6.72946e-05      1.59504      120.099 
-9.39922e-05     0.506166      99.1272 
-5.37392e-05      2.16911      108.266 
-1.32851e-05      2.80089      96.9708 
0.00432280      6.16932     -43.1616 
-0.00265623      10.1823      45.0000 
-0.00176960      7.41349      70.7819 
-0.00262330      4.66202     -88.2752 
-0.000962751      10.1680      45.0807 
-0.000935349      10.2858      54.1751 
0.000744318      6.63288      68.2323 
0.00142326      13.2746     -39.9275 
0.00221397      7.10664     -140.712 
-0.000886000      9.58090      20.4022 
0.00344987      7.93420     -45.7127 
-0.000675085      10.2972      54.0871 
-0.000700832      10.7408      118.710 
0.000884778      6.62163      68.0045 
0.000881678      10.5856      38.7093 
-0.00176467      8.32750      32.5444 
-0.000843507      4.66911     -27.0016 
-0.000645807      10.8323     -39.1551 
0.000438222      2.82341     -55.9636 
-0.00227614      5.13309      125.486 
-0.00152471      13.5234     -43.6825 
-0.000221681      6.19417     -35.5385 
0.00133170      8.08426     -42.2952 
-0.000607312      8.47167     -45.6711 
0.00170637      9.28886     -126.154 
0.000970897      9.56727      41.1872 
-0.00136223      6.16590     -35.4947 
0.000780753      4.90853     -17.5458 
0.00150281      13.2467     -39.9144 
-0.00131407      6.99813      30.0070 
0.00155517      10.2737     -165.802 
-0.000407157      10.7137      118.671 
0.00149806      2.84022     -56.1924 
0.00143213      8.64049      127.665 
0.00130778      6.14565     -25.6483 
0.000565896      5.62626      140.482 
0.00199578      10.6008      38.6433 
-0.000769694      11.9564     -126.430 
-0.00124820      10.8172     -39.2203 
0.000198639      9.16294     -163.383 
0.000915303      9.33105     -147.162 
0.00223543      11.4040     -54.6398 
0.00104018      7.10385     -140.482 
0.000188067      9.19531     -163.575 
-0.00102758      7.11718     -145.998 
-0.000499428      8.57827     -140.295 
0.000689090      4.96579     -109.527 
-0.000182996      9.69207      104.583 
0.00116572      9.81328      42.1084 
-0.000660828      7.63374     -39.1515 
0.000516734      9.18164     -163.418 
-0.000517357      6.01350      77.9062 
-0.000524572      9.71660      104.664 
0.00100127      9.32505     -146.990 
-0.000511183      9.48503     -91.9314 
-0.000178408      9.58614     -141.863 
-0.000348837      7.17981     0.317375 
-0.000507669      3.85530     -48.7878 
-0.000511185      8.59386     -140.381 
0.000670791      11.2106     -33.2072 
-0.000340363      2.06458     -125.533 
-0.000174983      10.1120      65.2112 
-0.000173078      9.24158      19.3368 
-0.000172623      8.49978     -45.6653 
-0.000171350      9.59006     -142.030 
0.000489478      9.69264      129.304 
0.000491025      8.46590      87.8360 
-0.000329345      5.47318     -49.1474 
-0.000484971      10.7803     -58.5814 
-0.000645438      7.89938     -108.757 
-0.000167857      10.1038      65.3116 
-0.000484945      1.81836     -129.642 
-0.000324033      10.7315      118.619 
-0.000642081      11.6805     -127.556 
0.000165735      9.28450     -126.329 
0.000165515      4.95930     -109.315 
0.000324553      8.04946     -164.581 
0.000479046      4.17638     -163.304 
-0.000322058      10.9335      52.2068 
0.000319265      8.92650      74.9346 
-0.000476550      9.72175      104.780 
-0.000317043      1.40252     -176.718 
-0.000160496      9.22921      19.4971 
0.000312067      2.85708     -56.4184 
-0.000312765      10.5304     -42.6898 
-0.000158488      10.0936      65.1630 
-0.000157920      3.10504     -24.7442 
-0.000157417      7.20798     -2.70305 
0.000156892      10.2514      60.9340 
0.000156523      9.09247      34.4245 
0.000153028      5.42135     -72.8366 
-0.000153035      12.2192     -141.180 
-0.00174590      8.18726      118.129 
0.000709521      4.22198     -115.836 
-0.000249195      6.21442     -47.4811 
0.000903577      11.7169      145.362 
-0.000454950      10.5625      158.683 
0.000121530      3.94427      68.9030 
0.000425443      10.2593     -107.587 
-0.000115358      6.22813     -47.3437 
0.000220379      3.93729      69.1679 
-0.000113304      12.3692     -137.227 
-0.000757134      12.8661     -132.670 
-0.000109877      13.5615      131.355 
-0.000663361      8.29596     -110.313 
-0.000196218      10.2570     -55.5670 
-0.000578733      6.12410     -44.3397 
0.000103922      4.58891     -116.117 
0.000199666      3.19200      53.9221 
-0.000102151      12.3841     -137.291 
0.000372299      10.4089      134.845 
-9.92755e-05      13.5469      131.409 
-0.000192810      10.4682     -57.0094 
9.68115e-05      10.1614     -174.806 
-0.000184960      4.33401      158.049 
9.28872e-05      8.92871      74.4091 
-9.28571e-05      12.3858     -137.421 
0.000699488      5.55684      140.694 
9.12390e-05      8.74058     -62.3196 
8.99611e-05      2.45743      33.0495 
0.000549356      8.92349      74.5298 
8.87409e-05      3.20397      53.6293 
0.000170144      9.09171     -77.0316 
0.000164242      10.3336     -74.9708 
-8.80936e-05      1.70878      147.427 
-0.000523973      8.18571     -122.020 
0.000903424      8.76692     -62.2659 
-0.00101158      11.0856      28.0898 
0.000571195      10.0005     -74.5737 
-0.000165956      4.30836      158.202 
-0.000162139      9.33918      12.9967 
8.44571e-05      10.2534     -107.483 
8.37059e-05      10.4660      62.7001 
0.000455659      10.7362      133.867 
-0.000301835      6.17490     -165.560 
-0.000163704      10.4572     -57.1025 
-8.25632e-05      6.09764     -38.0729 
-0.000308403      10.5949      107.578 
-0.000156396      6.15223     -44.3378 
8.09550e-05      7.90987      125.739 
-7.98624e-05      6.19452     -165.607 
-7.91611e-05      3.17521     -70.8799 
0.000222342      10.0057     -74.4660 
7.85798e-05      3.20840      54.1352 
0.000153432      9.08719     -77.1561 
-0.000151731      13.5183      131.402 
-0.000498259      12.8793     -132.733 
0.00116050      8.75786     -62.3789 
0.000519124      11.7897     -42.7302 
-0.000148442      8.30301     -110.445 
-7.53888e-05      10.4466     -57.1923 
-7.54375e-05      4.31592      157.953 
-0.000141766      8.59229      61.3444 
-0.000339895      2.27522     -29.4988 
-0.000794790      8.35865      5.49154 
7.21973e-05      10.3946      134.766 
7.19087e-05      8.30485      157.636 
-0.000271388      12.1053     -55.3632 
0.000137277      10.3389     -74.8623 
-0.000392823      11.0905      157.412 
-7.07923e-05      13.5031      131.458 
-0.000205009      9.35893      12.9688 
-0.000509003      11.6597     -128.383 
0.000195164      8.28284      63.9294 
0.000785604      9.81325      27.5565 
-6.84322e-05      13.4897      131.394 
-0.000512233      12.5317      125.517 
-0.000196498      4.28955      158.102 
-0.000132278      10.4411     -57.4372 
-0.000819762      8.29088     -110.620 
-0.000369084      9.37342      12.8213 
0.000877562      12.7086      137.168 
0.000193152      5.54175      140.566 
0.000362442      10.2325      92.7995 
-6.45150e-05      10.0730      68.9389 
-0.00118102      12.8782     -132.861 
-6.35782e-05      8.38612      83.9752 
-0.000125714      12.0771     -55.3877 
-0.000240838      13.4751      131.449 
6.23618e-05      10.7643      133.873 
-0.000181575      10.0432      68.7495 
-0.000598089      11.7324      142.759 
6.16534e-05      11.5987     -33.6099 
-0.000350006      11.7040      142.777 
0.000752088      11.6156     -33.5546 
-0.000233947      12.0656     -55.4669 
0.000119558      5.56969      140.532 
-0.000119269      11.9663      122.789 
-0.000116771      12.2260     -56.8815 
0.000575221      10.0206     -5.15131 
0.000115990      7.21460      58.0275 
0.000181477      13.6329      138.687 
-0.000625272      11.5642      50.4739 
-0.000202650      10.4033     -57.5640 
-0.000739547      11.6635     -128.246 
-0.000659379      8.34046      5.64340 
0.000397494      10.8030      139.053 
-0.000113915      11.0683      28.1374 
0.000453650      9.15522     -5.01246 
-0.000171677      11.9499      122.840 
-0.000114137      10.8825     -141.191 
-0.000113571      10.0963      143.538 
0.000170216      11.8890      41.3870 
-0.000113754      12.4028     -137.746 
-0.000319895      8.17954     -105.020 
-5.69901e-05      12.5430      125.590 
-0.00109423      12.4172     -137.807 
5.66358e-05      13.5066      44.4598 
0.000393138      9.04967     -2.66146 
-0.000112550      8.51100      177.038 
-0.000449398      8.28403     -110.493 
0.000618195      10.0419     -5.25645 
5.60914e-05      13.6497      47.8498 
-5.61421e-05      13.4470      131.444 
-0.000561881      12.8920     -132.927 
-0.000565035      11.9605      122.918 
-0.000168312      11.7201      142.837 
0.000869409      13.6488      47.7318 
-0.00147589      10.8850     -141.339 
5.60533e-05      10.1292      82.3969 
0.000170156      10.2315      92.6903 
-0.000856247      12.3380     -129.937 
5.56064e-05      11.7002      145.306 
-0.000343179      8.49053      177.163 
0.000338416      10.4041      18.9564 
-0.000280955      12.0096      146.892 
-0.000396763      8.32224      5.79079 
0.000227625      10.7883      138.985 
5.60881e-05      11.6433     -33.5795 
0.00161868      10.0621     -5.24588 
0.000925603      9.06991     -2.65551 
0.000228605      9.42142     -8.42245 
-0.000171692      9.86543      144.989 
-0.000402885      12.8911     -133.049 
-0.000464358      11.9989      146.970 
0.000345636      12.6943      137.108 
-5.69709e-05      11.7485      142.818 
5.71042e-05      11.6325     -33.4994 
-5.72634e-05      10.6515     -163.641 
-0.000465131      12.0159      147.022 
0.000291280      10.4232      18.9202 
-0.000115327      10.6702     -163.670 
0.000115923      13.6620      47.6713 
-5.79373e-05      12.9757      129.307 
-0.000174594      8.30490      5.94343 
5.81186e-05      9.17465     -5.00181 
-0.000117385      10.6645     -163.775 
0.000296314      11.4132     -26.4303 
-5.83778e-05      11.0072     -151.573 
-0.000236924      10.7770     -161.833 
6.01577e-05      12.4722      38.3599 
0.000273326      10.8229     -55.6940 
-0.000217165      5.92611     -50.6162 
-0.000381972      9.48860      60.0286 
0.000451946      7.45051      13.6612 
0.000158061      8.25663      64.3036 
0.000756977      13.0622     -51.3412 
-0.000251114      9.49836      59.9267 
-0.000193989      9.19570      58.9705 
0.000277427      3.10552      161.210 
-0.000306873      10.4142     -57.4699 
0.000398509      12.1341      125.000 
0.000362884      2.07874     -7.73815 
0.000271694      4.72505     -2.66702 
-4.72264e-05      5.89759     -50.6434 
-4.72093e-05      8.17892     -122.212 
-0.000137474      8.15006      94.9279 
0.000930109      11.0203      114.101 
4.65730e-05      7.90707      64.2131 
0.000428009      11.3773     -121.119 
-4.55515e-05      11.5518      50.5485 
-0.000668003      8.15183      95.0698 
4.53149e-05      7.94933     -67.0486 
-4.50626e-05      8.18974     -122.331 
-0.000212493      11.2653      29.3397 
0.000333750      8.03273      135.606 
8.59477e-05      8.91277      74.7808 
-0.000170921      9.97097     -148.701 
-8.63299e-05      11.5389      50.6262 
8.62853e-05      5.58535      140.665 
-8.54374e-05      2.83316      71.0516 
8.38867e-05      7.95725     -66.9142 
-0.000123788      8.18482     -105.157 
-0.000241448      10.1331      69.3104 
-8.39624e-05      2.03995      52.5779 
-8.40354e-05      12.9276      45.8772 
8.49746e-05      11.7374      121.196 
0.000126116      11.8035     -42.8025 
-0.000203106      8.65683     -3.57819 
0.000282538      5.98136     -13.3389 
-4.18711e-05      5.54622     -84.4097 
0.000242838      11.7541      121.147 
4.15229e-05      6.31168     -93.4489 
0.000122356      5.59568     -4.30678 
-4.13328e-05      10.1149      69.2713 
8.16092e-05      10.3355      19.2058 
-0.000438158      10.1598     -99.5187 
0.000442155      13.6470      47.6140 
-0.000159014      2.87214     -64.8610 
8.11153e-05      13.9461      134.071 
0.000118939      8.91811      74.6552 
0.000119532      11.1934      58.0712 
0.000120017      8.61312      127.642 
0.000394991      12.3475      45.8519 
-4.07198e-05      11.2728      29.2046 
0.000119077      6.29271     -93.6441 
-0.000278858      9.40579     -101.407 
4.03886e-05      11.0204      43.4550 
-0.000118688      11.5261      50.7040 
-7.96785e-05      7.19994     -116.565 
0.000236550      11.0217      43.3089 
0.000275844      11.3842     -120.979 
0.000275429      12.1069      124.977 
0.000471513      13.6339      47.6746 
0.000196129      12.9071     -51.9228 
0.000235567      13.9034      134.009 
7.91096e-05      9.82776      42.0321 
3.94679e-05      2.10162     -8.21111 
-7.84875e-05      8.47029      177.156 
7.82001e-05      12.5081     -127.071 
-0.000117232      7.78147     -95.9003 
-3.91862e-05      7.19160     -116.779 
3.93095e-05      13.0342     -51.3526 
-0.000156708      9.38982     -101.548 
7.81144e-05      11.7646      121.231 
-7.76301e-05      8.63537     -3.45242 
-7.79169e-05      10.9820     -151.381 
7.81024e-05      10.8447     -111.646 
3.87878e-05      2.08157     -8.29076 
7.79018e-05      11.0121      114.005 
-3.88191e-05      6.77968      172.374 
! Tentative model.
! Flux (Jy) Radius (mas)  Theta (deg)  Major FWHM (mas)  Axial ratio   Phi (deg) T \
! Freq (Hz)     SpecIndex
4.86544e-05      10.6704     -73.6711 
