! Center RA: 12 21 31.69052,  Dec: +28 13 58.50011 (2000.0)
! Established model.
! Flux (Jy) Radius (mas)  Theta (deg)  Major FWHM (mas)  Axial ratio   Phi (deg) T \
! Freq (Hz)     SpecIndex
 0.0433414     0.185540     -104.036 
 0.0142687     0.200125     -102.995 
0.00645792     0.171026     -105.255 
0.00238219    0.0300000     -90.0000 
0.00327139    0.0150000     -90.0000 
0.00818896     0.182483     -99.4623 
0.00192078    0.0807775      111.801 
0.00168682     0.156605     -106.699 
 0.0117130    0.0450000     -90.0000 
0.000962403    0.0874643      120.964 
0.00542168     0.100623      116.565 
0.00237732     0.167705     -100.305 
0.000680389     0.108167      123.690 
0.00461447     0.120934      119.745 
0.00209007     0.195576     -94.3987 
0.00155203    0.0474342     -108.435 
0.000723228     0.134164      116.565 
0.000409294     0.129035      125.538 
0.000137280     0.141510      122.005 
0.000268665     0.204022      107.103 
0.000756020     0.222991      109.654 
0.000368340     0.117154      129.806 
0.00177054     0.210000     -90.0000 
0.000690074    0.0335410     -116.565 
0.000611020     0.237171      108.435 
0.000115528     0.127279      135.000 
0.00153387     0.242332      111.801 
0.00165071     0.117154      140.194 
0.000306513     0.256320      110.556 
0.00257236     0.261964      113.629 
0.00136758     0.210535     -85.9144 
0.00119689     0.438092      128.047 
0.00127739     0.225499     -86.1859 
0.00119217     0.479296      110.136 
0.000637957     0.447493      129.560 
0.000583197     0.212132     -81.8699 
0.000649221     0.729006      126.634 
0.000325992     0.346302     -94.9697 
6.34768e-05     0.828402      121.675 
0.000123745    0.0474342     -71.5651 
0.000123701     0.457193      131.009 
0.000245474     0.849058      122.005 
0.000123810     0.345326     -92.4896 
6.03591e-05     0.360312     -92.3859 
0.00100018     0.483037      126.158 
8.61868e-05    0.0750000      126.870 
0.000731853    0.0670820      116.565 
0.000758795     0.504009      126.529 
0.000524800     0.694874      122.661 
0.000147181      2.33499      110.298 
7.35125e-05     0.225000     -90.0000 
0.00111822     0.240000     -90.0000 
0.00100284      2.32093      110.426 
0.000343268     0.492037      127.569 
0.000929214     0.715612      123.024 
0.000270322    0.0948683      108.435 
0.000306590    0.0618466     -104.036 
0.000339400     0.109202      105.945 
0.000181900      2.32621      110.772 
0.000636821     0.736376      123.366 
0.000118090      2.27353      110.468 
0.000454880     0.255000     -90.0000 
5.77775e-05      2.34024      110.642 
0.000223506      2.25425      110.244 
5.68618e-05      2.54775      109.608 
0.000423116      2.56693      109.811 
0.000367257     0.757166      123.690 
0.000708929     0.255441     -86.6335 
0.000306584      2.23500      110.016 
0.000104001      2.34907      110.171 
0.000148491     0.777978      123.996 
4.91237e-05      2.57205      110.126 
9.71053e-05     0.798812      124.287 
0.000142959      2.59131      110.323 
0.000363098      2.21579      109.784 
0.000141110     0.495227      125.134 
4.75595e-05     0.811249      123.690 
9.22891e-05      2.35806      109.703 
0.000318992     0.819665      124.563 
0.000404204     0.270416     -86.8202 
9.18508e-05      2.59656      110.634 
0.000389042    0.0600000     -90.0000 
0.000132940      2.61590      110.825 
4.48308e-05     0.474342      124.695 
0.000129137     0.123693      104.036 
0.000208081     0.316425      121.430 
0.000128256     0.486749      123.690 
0.000171976     0.840536      124.824 
8.48710e-05      2.35304      109.359 
4.30518e-05      2.64068      111.318 
8.47285e-05     0.285394     -86.9872 
4.25829e-05      2.67959      111.682 
4.21761e-05      2.21076      109.418 
0.000205193      2.69908      111.861 
0.000204337     0.849191      125.655 
8.30567e-05     0.315000     -90.0000 
0.000528447      2.19662      109.549 
0.000197259     0.478592      122.196 
4.08532e-05     0.330000     -90.0000 
4.07911e-05     0.218403      105.945 
0.000159294     0.330341     -87.3974 
0.000274537      2.89387      107.496 
0.000155948      2.34811      109.014 
4.00695e-05     0.138293      102.529 
3.95917e-05     0.732393      124.992 
7.78563e-05     0.241868     -82.8750 
0.000229051     0.858021      126.469 
0.000507440    0.0750000     -90.0000 
3.87899e-05     0.152971      101.310 
0.000330100     0.345326     -87.5104 
0.000149424      2.71860      112.036 
3.82421e-05     0.200125      102.995 
0.000363394     0.324500      123.690 
0.000477108      2.90373      107.124 
0.000276974     0.229456     -78.6901 
0.000109499     0.476471      118.179 
0.000177002      2.35748      108.550 
7.09306e-05     0.182483      99.4623 
0.000105554     0.720156      125.676 
0.000178574     0.879005      126.674 
0.000103022     0.150748      95.7106 
0.000314382      2.90818      107.407 
0.000169505     0.469574      116.565 
0.000168479      2.72427      112.329 
0.000264104     0.888046      127.451 
0.000498633     0.360312     -87.6141 
0.000132021      2.19164      109.179 
0.000159296      2.35275      108.204 
3.27737e-05     0.476707      114.146 
0.000119406     0.708025      126.384 
9.32348e-05     0.165680      95.1944 
0.000241212      2.17748      109.309 
0.000211295     0.470771      112.479 
3.15166e-05      2.73815      112.209 
6.20804e-05     0.214767     -77.9052 
0.000211663     0.897246      128.211 
0.000119207      2.74385      112.499 
0.000118572     0.345326      124.380 
0.000481443      2.91807      107.038 
5.96152e-05      2.44872      115.780 
0.000735690     0.218403     -74.0546 
5.89519e-05      2.34811      107.856 
5.72758e-05     0.150000      90.0000 
2.88613e-05      2.45529      116.095 
0.000243501    0.0912414     -80.5377 
5.72466e-05     0.909079      127.626 
8.25635e-05     0.180624      94.7636 
2.85858e-05      2.33384      107.969 
5.62681e-05      2.46192      116.409 
5.57463e-05      2.08073      111.571 
0.000386043     0.918314      128.367 
0.000108928     0.465242      110.772 
0.000578826     0.375300     -87.7094 
2.78453e-05      2.32925      107.618 
0.000106716      2.48878      116.874 
2.75285e-05     0.594348      132.955 
0.000398293      2.07239      112.109 
7.99342e-05      2.32476      107.266 
2.69851e-05      2.74963      112.788 
2.68077e-05      2.59062      118.346 
0.000125157     0.763823      109.502 
0.000127862      2.61095      118.479 
0.000125309     0.474342      108.435 
7.64007e-05      2.92250      107.319 
9.61907e-05     0.195576      94.3987 
5.04831e-05     0.604669      133.995 
2.57735e-05      2.17257      108.935 
5.06995e-05      2.88476      109.754 
5.04632e-05      2.32035      106.912 
2.54180e-05     0.165000      90.0000 
0.000264494     0.333054      125.838 
0.000640262      1.19897      133.479 
7.51251e-05     0.927699      129.094 
0.000116506      2.46863      116.721 
7.20185e-05      2.31603      106.557 
0.000264923      2.63129      118.610 
9.38329e-05     0.180000      90.0000 
0.000137865      2.88987      110.034 
7.04891e-05     0.817328      132.769 
2.37316e-05     0.615183      135.000 
0.000111697     0.469814      106.699 
0.000269645     0.758947      108.435 
4.56832e-05     0.604669      136.005 
4.58250e-05      2.31180      106.201 
0.000105547     0.135831      83.6598 
0.000175827      2.93241      106.952 
4.43797e-05      2.30766      105.843 
0.000124865     0.827587      133.531 
0.000535534      2.06423      112.652 
0.000112677      2.48136      103.280 
0.000103864     0.615549      136.975 
0.000178411     0.195000      90.0000 
0.000120568      2.44849      116.565 
6.23673e-05      2.89504      110.313 
0.000159202      2.95115      107.146 
2.10199e-05      2.29965      105.124 
4.08291e-05      2.49596      103.201 
0.000120891     0.390288     -87.7974 
0.000115724     0.465725      104.931 
2.02161e-05      2.29578      104.763 
5.90766e-05     0.768668      107.021 
5.87347e-05      2.90028      110.591 
0.000651126     0.848793      133.568 
0.000127888    0.0764853     -78.6901 
0.000147995      2.49257      102.865 
0.000287876     0.391152     -85.6013 
1.95412e-05      2.29201      104.400 
0.000111243     0.626598      137.911 
0.000127275      2.63851      118.896 
7.60998e-05      1.20934      133.995 
0.000104655      2.68265      105.901 
1.89183e-05      2.28832      104.036 
9.91248e-05     0.764412      105.945 
0.000209935      2.96992      107.337 
7.25749e-05      2.90559      110.868 
0.000390922      1.22017      133.506 
3.68627e-05     0.120934      82.8750 
1.85827e-05      2.28473      103.671 
0.000188750      2.67858      105.593 
5.28859e-05     0.210535      94.0856 
1.83751e-05      2.42838      116.407 
3.58752e-05      2.28123      103.305 
0.000102840      2.36801      116.727 
1.78440e-05     0.138293      77.4712 
1.77808e-05      2.60504      103.316 
0.000266602     0.462088      103.134 
0.000161834     0.637809      138.814 
1.73426e-05      2.29245      102.854 
0.000155673     0.123693      75.9638 
6.67550e-05      2.91097      111.143 
3.35478e-05      2.65165      118.740 
3.37065e-05      2.28916      102.488 
0.000190211     0.760427      104.859 
0.000253656      2.47795      102.943 
0.000306411     0.210000      90.0000 
8.24622e-05      2.60162      102.995 
0.000364509     0.406110     -85.7636 
6.40902e-05      2.28596      102.121 
0.000103610      2.70541      106.425 
0.000197844      2.65890      119.023 
9.17503e-05      2.98873      107.526 
1.59941e-05      2.37479      117.051 
0.000202102      2.05040      112.813 
0.000168920      2.99328      107.799 
0.000333694      2.36144      117.216 
4.60504e-05      2.91641      111.418 
4.54365e-05      2.28286      101.753 
0.000147855      1.23055      134.012 
0.000187621     0.649173      139.686 
5.77578e-05      2.29456      101.310 
4.30882e-05      2.93586      111.584 
9.32367e-05     0.756720      103.761 
0.000232984      2.05626      113.199 
2.84027e-05     0.106066      81.8699 
1.42850e-05      2.58366      102.745 
0.000212839      1.24138      133.531 
0.000106207      2.29166      100.942 
7.87823e-05      2.94142      111.856 
0.000268786     0.458912      101.310 
1.35628e-05      2.87640      106.356 
7.69629e-05     0.753293      102.653 
5.03183e-05    0.0912414      80.5377 
4.87666e-05      2.87222      106.069 
0.000122063      1.67920      108.759 
0.000209887     0.422404     -83.8845 
0.000137871      2.70121      106.120 
6.11555e-05      3.01216      107.984 
0.000106567      2.28886      100.574 
8.87960e-05     0.750150      101.535 
0.000480267      1.25176      134.029 
7.05771e-05      2.94703      112.126 
0.000148612      2.66621      119.305 
3.30652e-05     0.660681      140.528 
0.000109384      3.01683      108.255 
0.000467369     0.651249      141.546 
3.35971e-05    0.0474342      108.435 
8.69801e-05     0.747295      100.408 
0.000170444      1.67443      108.273 
9.47327e-05      2.30092      100.138 
9.22249e-05      2.95271      112.396 
5.14026e-05      2.86810      105.781 
0.000249403     0.210535      85.9144 
0.000129272     0.661532      86.0995 
1.07045e-05     0.109202      74.0546 
6.16370e-05     0.424264     -81.8699 
9.53640e-05    0.0335410      116.565 
1.95677e-05    0.0212132     -135.000 
1.02197e-05      2.36834      117.539 
0.000237838      2.35505      117.708 
0.000167816     0.222991     -70.3462 
0.000234481     0.439118     -82.1467 
0.000406699      3.04056      108.703 
0.000272766      1.27297      134.045 
7.50527e-05      2.28616      100.204 
0.000164394      2.04848      113.749 
9.96684e-05      2.29833      99.7697 
0.000111917     0.901124      87.1376 
7.44287e-05      1.66979      107.784 
1.84492e-05     0.128160      69.4440 
0.000102464      2.95846      112.665 
0.000134471      1.79355      104.036 
0.000106949      2.88254      105.700 
9.07886e-05      2.67358      119.585 
6.56776e-05    0.0212132      135.000 
3.40008e-05      2.62551      96.2317 
4.91440e-05      1.66527      107.292 
0.000101220     0.662722      84.8056 
0.000217235      1.36360      129.644 
6.90228e-05      2.62393      95.9061 
1.50846e-05     0.134164      63.4349 
1.54458e-05      1.66628      103.536 
0.000195350      3.42949      108.356 
0.000196920      2.96427      112.932 
0.000148298      2.05456      114.132 
7.55246e-06      1.67745      102.918 
0.000187185      2.28355      99.8336 
0.000249156     0.916965      86.2483 
6.34047e-05      1.67416      102.417 
4.77549e-05    0.0335410      153.435 
6.18904e-05      2.68102      119.864 
0.000113788     0.495227     -88.2643 
9.11602e-05      1.37322      130.126 
7.04576e-05      1.78997      103.570 
5.42470e-05      2.62243      95.5802 
0.000116196    0.0300000      180.000 
6.64079e-05     0.342053      127.875 
0.000147228      1.28344      134.526 
1.97980e-05     0.453982     -82.4054 
6.60437e-06      1.66020      108.435 
6.58414e-06      2.46676      103.360 
7.91516e-05      2.89698      105.619 
6.67836e-05      1.67100      101.915 
0.000524916      2.14516      132.166 
0.000163504      1.62451      132.380 
4.10991e-05     0.141510      57.9946 
0.000140374      2.63736      95.5485 
2.34286e-05      2.47027      103.699 
2.46660e-05      2.68852      120.141 
0.000422495      3.43425      108.593 
0.000116823      2.79145      88.1524 
0.000120443     0.930121      127.794 
1.21723e-05     0.212132      81.8699 
5.57578e-05      1.66500      108.925 
0.000168889     0.510000     -90.0000 
4.57816e-05      2.70903      120.256 
0.000121378      2.13833      81.5289 
0.000222906      2.36206      118.030 
0.000139543      2.89815      87.3301 
0.000105864      2.27140      100.271 
3.64603e-05      1.66797      101.411 
4.68307e-05      2.71662      120.530 
7.54223e-05      1.26223      134.519 
4.43950e-05     0.150000      53.1301 
1.95324e-05      1.78651      103.103 
7.32193e-05      2.06074      114.513 
3.32163e-05      2.88453      116.565 
0.000315531      2.14059      81.1317 
2.70771e-05      2.47386      104.036 
5.62402e-05     0.837989      134.275 
9.37909e-05     0.905608      63.4349 
0.000167631      1.63466      132.769 
1.44703e-05      2.74484      120.910 
2.79906e-05      1.68268      101.310 
2.27903e-05      2.91548      105.824 
1.39818e-05      2.76542      121.017 
0.000161187    0.0335410     -153.435 
3.10821e-05      2.77646      88.1424 
4.55718e-06      2.72406      106.639 
1.34828e-05      2.77317      121.283 
4.09970e-05      2.28104      99.4623 
2.18999e-05      2.89888      87.0340 
1.76554e-05      2.25938      100.713 
4.48688e-05     0.159452      48.8141 
1.27048e-05      2.65619      105.056 
4.87095e-05      1.67980      100.808 
2.98436e-05      2.79379      121.386 
1.29984e-05      2.76590      107.354 
8.55274e-06      2.91143      105.540 
3.34174e-05      2.91313      87.3439 
2.54188e-05     0.351461      129.806 
5.54706e-05      2.26877      99.8983 
0.000101159      2.89127      116.831 
8.34924e-05      1.66993      109.411 
2.00660e-05     0.754337      107.354 
6.97685e-05      2.77699      87.8331 
1.22409e-05      2.78022      107.262 
5.41249e-05      2.92992      105.744 
8.08662e-05      2.24464      100.784 
1.92086e-05      1.12450      133.919 
5.37467e-05      2.80163      121.648 
4.07453e-06      2.24750      101.160 
8.24229e-05      2.91386      87.0492 
0.000142941      1.14571      133.939 
2.96118e-05      2.78471      107.557 
3.92011e-06      1.78317      102.633 
6.44780e-05      2.47754      104.373 
3.88343e-06      2.06701      114.891 
7.59859e-06      2.63403      104.511 
7.19131e-05      2.05341      115.067 
0.000126188     0.642028      142.595 
7.28111e-06     0.918069      85.3141 
6.48137e-05     0.169706      45.0000 
0.000103428      2.04666      94.6242 
2.96448e-05      1.67705      100.305 
3.61871e-06     0.676498      86.1859 
0.000128813      1.10247      75.0184 
3.10219e-05      2.80953      121.908 
6.00127e-05      1.64488      133.152 
2.00927e-05      2.28483      122.125 
2.86439e-05      2.79902      107.464 
2.77918e-05     0.660681      87.3974 
1.17328e-05     0.480234      104.470 
6.36028e-05      2.83019      122.005 
6.93634e-05     0.510221     -88.3153 
5.38617e-05      2.91467      86.7547 
4.88277e-05      2.30552      122.242 
2.88553e-05     0.361248      131.634 
5.59937e-05      2.14295      80.7355 
1.19594e-05     0.335410     -100.305 
0.000142429      1.65585      132.797 
2.65032e-05      2.95260      106.225 
3.58041e-05      2.77759      87.5239 
2.90849e-05      2.45386      79.7891 
9.34037e-05      2.63885      95.8726 
4.18289e-05      2.80356      107.756 
1.56869e-05      3.06448      109.144 
2.69617e-05      1.67443      99.7998 
2.88340e-06     0.933019      85.3894 
0.000114185      2.45125      80.1342 
7.04513e-05      2.94844      105.945 
5.18020e-05      2.91556      86.4604 
7.54982e-05      2.83817      122.262 
5.40426e-06      2.11760      124.028 
3.51272e-05     0.338415     -102.804 
8.02518e-06      2.13870      79.0841 
1.49058e-05      2.48131      104.708 
1.70653e-05      2.36915      118.350 
6.28799e-05      1.97590      120.069 
2.51414e-05     0.848528      135.000 
5.24567e-06      2.14159      78.6901 
3.01571e-05      1.67497      109.895 
3.34258e-05     0.350179      133.264 
6.16217e-05      2.03055      94.2364 
2.59424e-06      2.14458      78.2971 
8.40382e-05      2.14767      77.9052 
6.07309e-05      2.31355      122.557 
5.17272e-05    0.0474342     -161.565 
1.36368e-05      2.27862      99.0903 
2.75881e-05      1.65714      99.3771 
5.34436e-05      1.09869      75.7740 
5.19407e-05      2.91653      86.1663 
2.39664e-06     0.931933      86.3086 
4.11633e-05      2.80564      125.645 
1.92927e-05      2.81784      107.663 
6.56405e-06     0.180624      41.6335 
6.32279e-06      3.03579      108.435 
1.73674e-05     0.510882     -86.6335 
8.67084e-06      2.77828      87.2148 
2.99763e-05      3.42480      108.118 
1.68278e-05     0.654007      143.393 
4.32681e-06     0.323805     -103.392 
1.66721e-05     0.360624      135.000 
4.23684e-06      2.04710      114.687 
8.33569e-06      1.16692      133.958 
1.22543e-05      1.65477      98.8646 
1.63650e-05      2.91757      85.8724 
1.21716e-05      2.15526      132.461 
4.03537e-06      3.42016      107.879 
4.03821e-06      1.65517      133.531 
4.03375e-06      1.96294      120.288 
3.98759e-06     0.491350     -77.6609 
-3.98112e-06     0.723896      55.9807 
! Tentative model.
! Flux (Jy) Radius (mas)  Theta (deg)  Major FWHM (mas)  Axial ratio   Phi (deg) T \
! Freq (Hz)     SpecIndex
7.91103e-06      2.36915      118.350 
7.82585e-06      2.76330      87.1997 
1.17040e-05      1.96294      120.288 
2.28110e-05      2.63885      95.8726 
1.90319e-05      2.89127      116.831 
7.77644e-06      2.23278      101.234 
2.28368e-05      2.45125      80.1342 
3.96748e-06      1.65585      132.797 
1.15108e-05      1.09869      75.7740 
3.03056e-05      2.91757      85.8724 
1.14393e-05      2.04710      114.687 
1.50769e-05     0.327605     -105.945 
1.50216e-05     0.848528      135.000 
2.63805e-05      2.14767      77.9052 
1.88090e-05      2.31355      122.557 
1.12939e-05     0.180624      41.6335 
-4.52359e-05     0.723896      55.9807 
3.01193e-05     0.905608      63.4349 
7.74565e-06      1.25176      134.029 
1.12408e-05      2.81784      107.663 
3.77167e-05      2.03055      94.2364 
1.14867e-05     0.360624      135.000 
3.92727e-06      2.83817      122.262 
3.37167e-05      3.42016      107.879 
2.63600e-05      2.15526      132.461 
3.90434e-06      1.65517      133.531 
3.90609e-06     0.758947      108.435 
1.13624e-05      1.67497      109.895 
7.53156e-06      1.16692      133.958 
7.70651e-06    0.0474342     -161.565 
2.24432e-05      2.80564      125.645 
2.24758e-05      2.94844      105.945 
1.13385e-05     0.654007      143.393 
3.86536e-06      2.47754      104.373 
3.86792e-06      1.36360      129.644 
3.36327e-05      1.65477      98.8646 
-4.86849e-05      1.84201      96.5463 
3.84186e-06     0.510882     -86.6335 
1.85307e-05      1.66608      133.176 
1.12162e-05     0.660681      87.3974 
3.78817e-06      2.80356      107.756 
-2.21528e-05      3.14707      104.632 
3.77069e-06      2.96427      112.932 
7.34983e-06      1.35208      130.050 
7.32272e-06      2.62101      84.7462 
3.69126e-06      1.23055      134.012 
3.67503e-06     0.480234      104.470 
3.67440e-06    0.0450000      180.000 
7.28513e-06      1.97590      120.069 
3.66592e-06     0.491350     -77.6609 
7.25079e-06      2.27862      99.0903 
-7.26660e-06      1.13941      110.821 
3.63215e-06      3.03579      108.435 
3.62153e-06     0.763823      109.502 
