! Center RA: 12 21 31.69052,  Dec: +28 13 58.50011 (2000.0)
! Established model.
! Flux (Jy) Radius (mas)  Theta (deg)  Major FWHM (mas)  Axial ratio   Phi (deg) T \
! Freq (Hz)     SpecIndex
  0.107775      0.00000      0.00000 
 0.0393084    0.0202604      0.00000 
 0.0484636    0.0202604     -90.0000 
 0.0115596    0.0896014      63.6495 
 0.0172848     0.101837      78.5245 
0.00951609     0.107434      68.2729 
 0.0199053    0.0397705     -90.0000 
0.00961347     0.121759      80.4216 
0.00734587     0.240977      94.8229 
0.00825100     0.260423      94.4620 
0.000700426     0.282706      98.0871 
0.000229577     0.404436      98.5360 
0.00563963     0.140322      90.0000 
0.000303566     0.141777      98.2159 
0.00227404     0.120062      90.0000 
0.00451001     0.401929      95.6787 
0.000473738     0.161111      97.2243 
0.00549818     0.424483      98.1301 
0.00117375     0.220795      95.2649 
0.00100555     0.446997      100.348 
0.000650281     0.541740      94.2100 
0.00120508     0.381773      95.9795 
0.000160779     0.262662      98.7088 
0.00175140     0.560155      92.0728 
0.000297610     0.470689      102.241 
0.00338448     0.362375      96.3009 
0.000694000     0.561200      94.0638 
0.000671340     0.475398      104.628 
0.000135881     0.201375      95.7743 
0.00461640    0.0600310     -90.0000 
0.00255647     0.580403      92.0005 
0.000622847     0.480914      106.965 
0.00223667     0.159832      90.0000 
0.000765934     0.581411      93.9223 
0.000868759     0.500328      106.288 
0.00179007     0.506146      108.408 
0.000409558     0.486965      109.161 
0.000491999     0.601626      93.7903 
0.00269945    0.0802914     -90.0000 
0.000260260     0.622720      95.5320 
0.000370811     0.645096      97.1498 
0.00136622    0.0848966      45.0000 
0.000341826     0.559789      90.0000 
0.000516268     0.665204      96.9326 
0.000752574     0.493986      111.381 
0.000429308     0.560155      87.9272 
0.000919733     0.524694      107.735 
0.000851180     0.667840      98.5944 
0.000631046     0.585580      97.8809 
0.000292493     0.455823      105.272 
0.000836447     0.437032      105.945 
0.00152188     0.605655      97.6181 
0.000186668     0.431906      103.360 
0.000444061     0.412220      104.011 
0.00113444    0.0998015      90.0000 
0.000236963     0.608549      99.4391 
0.000371166     0.624998      97.3810 
7.38896e-05     0.373757      105.487 
7.13814e-05     0.354273      106.362 
0.000209544     0.627803      99.1471 
0.000274539    0.0446338      63.0042 
6.90859e-05     0.334882      107.339 
0.000315984     0.316312      108.392 
0.000327170     0.647814      98.8622 
0.000146619    0.0720098      56.4755 
0.000110678     0.367749      112.431 
0.000271344     0.531217      109.817 
5.59692e-05     0.297155      109.625 
0.000215166     0.858779      102.105 
0.000498977     0.349107      113.700 
5.45171e-05     0.690371      100.015 
0.000253528     0.878599      101.828 
0.000329718     0.898439      101.563 
0.000242124     0.512905      110.556 
0.000601656      2.47819      115.331 
0.000260796     0.917561      101.319 
0.000373638     0.331336      115.056 
0.00149762    0.0998015     -90.0000 
4.21282e-05     0.600651      91.9330 
4.19364e-05     0.475177      112.272 
0.000600351      2.47321      120.081 
0.000163925     0.937436      101.076 
8.11580e-05     0.580049      90.0000 
4.08571e-05     0.375627      115.183 
0.000156361     0.957327      100.843 
3.94489e-05     0.761484      103.680 
0.000336768      2.46959      114.906 
0.000291631     0.980435      101.792 
3.76783e-05     0.357396      116.565 
3.73257e-05     0.829578      105.369 
0.000144919     0.384685      117.915 
0.000528574      2.73159      113.748 
0.000105305     0.849131      105.006 
0.000138542     0.540658      87.8524 
0.000414993      1.00028      101.554 
3.48730e-05     0.412159      119.085 
0.000200648      2.46112      114.479 
3.47316e-05     0.420705      92.7603 
3.43087e-05     0.394577      120.515 
0.000226907     0.421988      121.401 
3.33821e-05     0.867991      104.673 
0.000190698     0.420217      90.0000 
0.000331670     0.541740      85.7900 
0.000245922     0.854601      106.319 
0.000550647      2.45570      120.318 
0.000247183      2.99868      109.881 
0.000510681      2.45310      114.064 
6.07984e-05     0.520365      112.645 
0.000136978     0.873342      105.959 
0.000716804      2.30880      104.032 
0.000118395     0.432889      123.690 
0.000460728      3.01774      109.751 
0.000272635      1.00437      102.645 
0.000265515     0.420705      87.2397 
0.000789474      2.75763      113.970 
5.65215e-05     0.840993      107.982 
5.60513e-05     0.459977      124.364 
7.91995e-05     0.538423      111.846 
5.39656e-05     0.561200      85.9362 
0.000132324     0.444008      125.785 
8.07875e-05     0.817257      111.547 
0.000149854    0.0720098      33.5245 
7.64639e-05     0.805984      113.367 
0.000124751     0.543603      83.6598 
2.51162e-05     0.471709      126.396 
0.000273598      1.02414      102.397 
0.000257535      2.44491      113.630 
0.000456217     0.892839      105.601 
0.000164066     0.456152      127.850 
0.000735320      2.28445      103.680 
0.000714322      3.02465      110.112 
4.85162e-05     0.824622      112.808 
0.000611999     0.120062     -90.0000 
0.000407239     0.422095      84.5935 
0.00100761    0.0896014      26.3505 
0.000164233     0.564587      112.919 
0.000197747     0.562998      83.8791 
0.000135797     0.814232      114.676 
6.65207e-05      2.42902      120.153 
0.000106112     0.484006      128.327 
0.000602578      2.41825      113.383 
0.000253577      2.41152      120.395 
0.000687174      5.06115      107.000 
0.000245648     0.822896      115.958 
4.12868e-05      1.02868      103.499 
4.06740e-05     0.468857      129.806 
4.03232e-05      1.06630      113.209 
0.000236881     0.583147      84.0913 
0.000221347      1.08495      112.788 
0.000114620     0.496341      130.094 
3.60204e-05      1.04321      102.167 
1.80911e-05     0.481580      131.589 
0.000103991     0.509625      131.837 
0.00100141      2.74946      113.585 
0.000444826      2.26075      103.298 
0.000131876      2.39406      120.640 
0.000151192      1.75559      104.505 
0.000314265     0.572781      114.786 
0.000602469     0.101837     -78.5245 
0.000484868     0.424483      81.8699 
0.000113031      1.09265      113.731 
0.000108245      1.93047      103.167 
9.49762e-05      1.03927      101.115 
0.000180403     0.250509     -118.638 
0.000190189      2.78409      114.168 
0.000123515      1.07414      114.166 
3.25754e-05     0.523357      133.490 
0.000267579     0.603304      84.2894 
0.000243291     0.668581      141.059 
0.000263118      3.04298      109.986 
0.000198194      1.73187      104.042 
0.000505550      2.11299      107.058 
7.45124e-05      2.36696      120.459 
1.51717e-05     0.841160      115.353 
4.25320e-05     0.495261      133.342 
0.000247266      2.29101      123.971 
0.000547025      2.92510      115.513 
0.000413373      1.08259      115.144 
2.84963e-05      1.03556      100.015 
0.000189755      1.72707      103.390 
0.000139205      2.37730      120.880 
0.000242403     0.684458      142.125 
0.000204331      1.05551      99.8239 
1.36679e-05      1.80869      108.029 
0.000406776     0.233573     -120.932 
0.000109826      1.81507      108.637 
0.000115809     0.887605      104.342 
0.000645075      2.26550      103.797 
0.000118093     0.622720      84.4680 
1.29776e-05      2.50090      120.250 
5.02072e-05      3.06202      109.856 
0.000123231     0.641314      86.4446 
8.13275e-05     0.466621      133.241 
0.000416951     0.107434      21.7271 
0.000120032      1.72249      102.735 
6.18957e-05     0.831621      117.166 
0.000197237      3.26176      113.109 
0.000256342      2.41057      112.957 
1.18089e-05      3.09946      109.606 
0.000159120      2.98045      106.363 
8.58518e-05      2.34952      120.710 
0.000128474      1.71829      102.100 
0.000190659     0.699961      143.106 
5.41706e-05      3.27255      112.643 
0.000113241      1.79588      108.844 
0.000124568      1.82164      109.241 
3.99073e-05     0.585580      82.1191 
0.000115174     0.591236      113.962 
0.000450395      1.09135      116.107 
0.000266755      5.06711      107.219 
0.000156241      3.26947      113.423 
3.02718e-05     0.480727      135.000 
0.000238983     0.446997      79.6521 
0.000211935      1.05225      98.7368 
0.000144010      3.28041      112.970 
0.000373051      2.35993      121.132 
3.95182e-05      1.71416      101.438 
0.000187239     0.452074      135.000 
0.000438102      2.13237      106.898 
3.85001e-05     0.661537      86.5534 
0.000157295      2.27975      123.549 
0.000397479      1.48312      93.8584 
0.000101175      4.01115      106.811 
0.000126157      1.73329      101.310 
0.000243240      2.97501      106.003 
0.000102213     0.680152      88.2930 
4.61331e-05     0.882975      103.115 
0.000152498     0.568616      79.8913 
0.000304641      2.53776      110.294 
0.000224865     0.716267      144.079 
8.66902e-06      2.72350      113.358 
0.000243135      4.00534      106.534 
0.000317230     0.841065      118.394 
0.000193227      1.72943      100.652 
0.000298683      1.80253      109.453 
0.000249972      3.27758      113.748 
0.000211496     0.126477      18.3275 
0.000148033     0.260826     -122.547 
0.000130319     0.681013      86.6521 
4.90783e-05     0.427819      79.1828 
0.000182650      3.98111      106.344 
2.11743e-05      3.28286      112.186 
0.000344445      5.04178      107.068 
0.000115469      2.40274      112.513 
0.000274381      2.26289      123.832 
0.000248902      2.96949      105.627 
0.000145206      1.04946      97.6840 
0.000185931      1.10008      117.019 
0.000120419      3.29436      111.738 
0.000147367     0.450910      77.2126 
0.000213864      1.72593      100.015 
3.21548e-05      2.52798      120.424 
7.90611e-05      1.08207      117.507 
0.000133522     0.244605     -125.006 
3.55535e-05      2.89878      115.318 
0.000155297      2.27023      104.275 
-0.000933873      1.84038      91.2383 
2.29105e-05     0.812072      127.982 
9.35180e-05     0.701240      86.7487 
5.89943e-06      1.50334      93.8065 
0.000335136      1.52502      94.5155 
2.20059e-05      1.89476      100.958 
7.69390e-05     0.732771      145.008 
0.000182295      2.90751      115.679 
0.000226437      3.28579      114.071 
5.06818e-05     0.824695      129.091 
0.000321135      3.87057      108.059 
7.20106e-05      1.74251      99.2433 
0.000248496     0.145849      15.8239 
0.000244273      2.34261      121.389 
0.000126633      2.29418      104.645 
2.76580e-05      1.72252      99.3515 
4.18284e-05      3.27535      114.528 
5.65725e-05      1.73937      98.5845 
0.000199642      2.63196      106.787 
4.44302e-05     0.588572      80.2375 
2.99378e-05      1.89101      100.356 
6.98616e-05      4.10552      107.289 
0.000197263      1.82817      109.818 
9.22032e-05     0.809071      129.996 
0.000158041      1.02465      95.5895 
3.81725e-05     0.216445     -123.690 
0.000223565      2.15697      107.262 
1.79246e-05      1.73657      97.9480 
9.78643e-05      3.01270      110.606 
5.28291e-05      3.31319      111.609 
4.41576e-06      1.73388      97.2849 
8.77566e-06      1.73152      96.6446 
2.57961e-05      1.72929      95.9778 
2.34985e-05      2.53791      120.804 
0.000107128      1.74747      95.2479 
6.35053e-05     0.702680      85.0992 
0.000224385     0.572519      77.8948 
0.000323898      1.54447      94.4585 
5.14968e-05      2.42147      112.329 
6.15954e-05     0.401929     -84.3213 
7.28479e-05      3.30163      112.053 
8.08811e-05      2.96410      105.250 
0.000148082      1.74580      94.6103 
3.82442e-05      1.88748      99.7507 
6.27511e-05     0.424483      135.000 
7.90588e-05     0.384386     -128.660 
6.92745e-06     0.431906      76.6398 
7.03646e-06      2.70284      121.687 
0.000104976      4.11136      107.549 
0.000135774      2.71354      122.051 
3.28586e-05     0.822239      131.078 
7.59504e-05     0.807634      131.987 
1.10393e-05      3.97545      106.064 
8.68876e-06     0.759958      144.646 
0.000216230      1.74428      93.9469 
4.49517e-05      1.11816      116.548 
4.72751e-05      1.04481      95.4813 
1.53096e-05     0.545983      113.747 
3.03511e-05     0.399806     -126.913 
-0.000115904      1.47957      103.282 
1.99926e-05      2.77616      113.801 
4.20705e-05      3.29613      113.606 
-5.86894e-05      2.60187      124.662 
2.55535e-06      1.90671      99.6514 
1.68845e-05     0.858942      117.752 
2.15881e-05      1.77743      109.047 
9.61072e-06      5.03609      106.855 
4.72508e-06      2.96245      118.636 
4.65863e-06      1.13565      116.108 
-4.65531e-06      1.49483      102.348 
2.32955e-06      3.23806      116.405 
0.000963993      9.25461      147.443 
0.000877393      12.6864     -41.1005 
-0.000770308      9.88299      50.9971 
-0.000309794      10.2561      164.854 
-0.000661064      8.75494     -131.665 
0.000559834      8.37236     -153.008 
0.000895152      10.4761     -60.7433 
0.000699471      6.11065     -109.505 
-0.000426983      10.2757      164.884 
-0.000363702      3.30407      2.77273 
-0.000457391      3.12012     -159.355 
-0.000504416      13.0164      46.7426 
-0.000647857      10.9163      65.0785 
-0.000555505      9.97449     -95.9851 
0.000347545      9.25744     -137.454 
0.000101860      6.13628     -109.614 
-5.58669e-05      5.80239     -145.821 
-0.000402863      3.07285      174.774 
0.000263286      8.39051     -43.1627 
-5.55636e-05      11.2605      56.5937 
0.000255143      6.32565      47.1777 
-0.000105116      1.99503     -154.466 
-0.000395894      10.1481      24.6947 
-0.000344667      11.2497      56.6767 
-0.000385195      5.81854     -145.929 
0.000252247      10.2910      67.9705 
-0.000478117      12.3604      44.8696 
-0.000154034      10.6531      52.4004 
0.000239571      7.97794     -141.922 
0.000333752      9.04711     -65.3055 
0.000145343      6.65948     -38.6598 
0.000192151      11.3606      130.647 
0.000283380      2.10400     -65.8757 
0.000194410      9.23754      147.375 
0.000425343      12.7017     -41.0404 
0.000186698      10.9699     -113.760 
-0.000195036      6.90103     -135.000 
0.000277328      9.52912      10.1551 
-0.000274717      10.2894      165.017 
0.000184431      10.1977      102.918 
0.000277367      9.99819      3.44222 
-0.000140216      11.9812     -33.4243 
-0.000142306      9.90630      132.873 
0.000140760      2.97682      78.7637 
9.53244e-05      5.07088      156.774 
9.48188e-05      3.55989     -89.6739 
-0.000226390      3.72864     -82.9136 
0.000138445      7.90909      175.069 
-0.000138245      10.6654      52.3142 
-9.10912e-05      12.1914      38.2038 
0.000179508      8.40627     -42.8802 
-4.72990e-05      10.3234      165.184 
4.72140e-05      6.86372     -40.7440 
0.000224095      9.74513      141.249 
9.17971e-05      6.84364      71.2472 
0.000180215      7.87798     -99.9387 
0.000178980      10.3725     -161.915 
-0.000135355      9.55890      17.0310 
-0.000136626      9.48315     -93.9929 
-8.89485e-05      2.02139     -154.186 
-0.000177873      14.0315      43.8451 
-0.000134186      4.24004     -52.8543 
-0.000178084      6.87344     -135.000 
0.000131924      6.87497      70.9856 
0.000176600      3.54055     -89.3564 
-0.000132247      9.56193      43.9825 
4.51739e-05      3.37619      21.5413 
-0.000131789      9.92010      132.959 
8.80317e-05      9.47040     -59.2651 
0.000130192      6.15899      132.235 
4.41991e-05      5.08187      157.066 
-4.41402e-05      2.84540     -172.331 
-8.61640e-05      6.61875     -135.000 
4.35699e-05      10.0779      97.9865 
-8.60132e-05      9.50399     -94.1021 
4.34936e-05      8.28668     -130.302 
4.34908e-05      8.91324      111.732 
-4.34062e-05      2.36696      30.4591 
4.31285e-05      10.4860     -60.6467 
4.31355e-05      6.11774      116.816 
-4.28732e-05      10.4146     -100.512 
4.28041e-05      10.2801     -127.091 
4.23218e-05      10.4690     -60.5944 
0.000116805      6.68152      158.579 
-0.000226375      4.48512      72.6140 
-0.000136393      6.40914     -46.6415 
3.81716e-05      5.40296     -82.7713 
7.07928e-05      10.4749      115.930 
0.000169141      10.2510     -62.8347 
-0.000228597      7.69405      171.028 
0.000140389      5.40054     -82.9767 
0.000165580      8.73834     -65.9596 
0.000201839      6.65527      158.677 
3.62296e-05      9.91134      82.2288 
6.65217e-05      10.4652      116.074 
7.00085e-05      7.83892     -163.093 
0.000221863      6.89438      42.2959 
3.53721e-05      10.4511      114.900 
-6.88333e-05      4.56049     -170.663 
0.000219733      9.89127      82.2129 
-0.000154370      3.09060      164.611 
3.38474e-05      10.4695      114.853 
9.69517e-05      8.07394     -68.6455 
0.000140792      6.66267      158.515 
-6.49002e-05      10.0617      91.1410 
-0.000205310      12.2968      127.465 
9.28890e-05      7.85759     -163.135 
0.000249576      9.15296      61.9811 
-0.000442406      9.81364      35.7938 
0.000380725      5.38043     -82.9503 
-8.63713e-05      6.43727     -46.6390 
0.000117311      10.4610      114.752 
-0.000178065      5.37557      102.898 
6.13965e-05      7.12291      157.902 
-6.05462e-05      4.54050     -170.622 
0.000215965      6.31963     -114.295 
0.000182659      6.45070     -152.082 
-0.000111472      9.98784      77.7462 
0.000293862      11.2883      43.7099 
-0.000391982      10.0823      91.2495 
-0.000137074      4.33538     -106.346 
-0.000110606      5.38013      103.108 
-0.000302408      6.85930     -51.3911 
-5.65041e-05      10.2646      171.821 
-0.000252661      9.81474      45.3314 
-0.000177747      6.08846     -159.421 
2.93245e-05      7.22408      72.7678 
5.47204e-05      9.00154      95.4820 
0.000128700      12.9100      40.4763 
-0.000107466      5.97065     -43.3704 
5.29217e-05      10.4834      116.026 
2.78962e-05      8.76442     -65.8906 
-5.42982e-05      10.0223     -88.7430 
2.78656e-05      10.7664      151.483 
-5.50831e-05      12.0551      41.7046 
7.78861e-05      8.73856      95.3855 
5.12096e-05      10.2683     -62.8844 
-0.00100545      14.1581     -44.1411 
5.24065e-05      7.14169      157.963 
-9.82755e-05      7.71407      171.052 
0.000102254      7.66837      66.6461 
2.68994e-05      8.09281     -68.6978 
5.14047e-05      7.81387     -163.187 
-0.000420151      12.0400      41.7688 
0.000298757      10.5173      140.713 
0.000350206      9.88854      82.3292 
2.63646e-05      9.13974      111.571 
-0.000230093      9.36803      2.32289 
-2.62500e-05      4.31593     -55.5695 
0.000189437      10.1491     -129.242 
-0.000119085      12.4608      126.318 
-5.09418e-05      7.65079     -45.1073 
-0.000274492      11.7025     -32.2246 
-0.000191080      10.0819      91.1387 
-6.74444e-05      9.81910     -41.4495 
7.10713e-05      10.7486      151.431 
7.13682e-05      7.97181      53.1581 
-7.25455e-05      11.5171      32.8079 
6.96506e-05      9.97915     -56.6911 
9.29219e-05      8.97946      95.3657 
-0.000135813      11.7851      39.1469 
7.26498e-05      8.74769      112.872 
4.80503e-05      6.53068      48.3490 
2.52046e-05      8.18900     -49.8543 
-0.000319063      9.49699      96.2872 
4.79799e-05      6.87241     -69.5626 
-2.48312e-05      5.88211      29.0894 
-2.47989e-05      2.80850      54.2630 
2.47066e-05      9.90318     -117.549 
0.000214883      8.44628      106.931 
2.46705e-05      9.12160      111.616 
-8.64564e-05      10.0219     -88.8545 
0.000185263      10.4936     -39.8187 
-0.000280693      3.92053     -137.273 
-0.000134783      12.5164     -126.357 
0.000168958      6.95345     -73.2859 
-6.87619e-05      4.39874     -44.0807 
-0.000132119      5.94200     -43.3625 
4.57002e-05      6.90803      42.4202 
-2.43186e-05      4.34368     -55.5083 
-6.64595e-05      4.32972     -106.089 
0.000112986      7.39071     -139.497 
0.000229583      8.84104     -163.572 
4.65018e-05      10.3933      152.991 
-4.05436e-05      4.52125     -170.581 
-2.35281e-05      3.13486      164.463 
-8.64266e-05      8.73952     -176.194 
-6.53322e-05      9.25328     -43.2486 
8.81379e-05      9.88522     -117.604 
8.21866e-05      6.64451      158.453 
-0.000308313      7.86893      120.213 
-2.30628e-05      7.66510     -45.0000 
-0.000100853      5.87265      28.9231 
-2.29416e-05      4.95755     -65.1922 
0.000159319      4.59780      18.5177 
0.000185668      8.73694      113.046 
6.60193e-05      9.16249      61.8693 
4.40059e-05      8.24975     -28.0569 
-0.000232995      11.6488     -33.4464 
4.09397e-05      9.14694      111.684 
4.24388e-05      3.75130     -107.377 
0.000100973      12.9073      40.6006 
9.85198e-05      2.06223     -177.226 
-0.000134840      4.93917     -65.0935 
-9.75217e-05      10.1231      176.149 
-0.000111042      11.5341      32.7534 
-0.000141088      10.0536      87.0351 
2.19284e-05      10.2599     -62.7378 
0.000125592      7.68629      66.7037 
2.17348e-05      11.2806      60.9354 
4.15883e-05      10.4923      116.125 
0.000146084      7.84743      41.6936 
4.15353e-05      6.52913      48.1073 
-2.16776e-05      9.40621     -46.1184 
0.000330415      8.63041      20.1980 
0.000100270      7.86958      158.063 
-2.13861e-05      4.35518     -55.2886 
-4.17818e-05      10.8404     -122.721 
-5.58029e-05      6.05266     -45.2662 
-4.10065e-05      10.5204     -143.349 
9.64722e-05      9.88613     -25.2696 
9.28818e-05      10.5283      152.756 
-0.000136667      8.93170     -2.95207 
-0.000110883      10.1875      79.5947 
-2.08844e-05      9.73379     -43.3351 
2.08428e-05      7.36308      1.71112 
4.08401e-05      13.8784     -136.577 
-5.80822e-05      7.70756     -44.8974 
0.000281212      8.12710     -29.9739 
9.25407e-05      7.57248      65.6674 
0.000113745      9.17970      61.9267 
0.000202032      7.40613     -139.598 
-0.000209613      12.4488      126.243 
-0.000148096      3.84548     -128.241 
-9.05598e-05      9.53788      64.9390 
-2.04572e-05      5.62477      73.0445 
-2.03998e-05      7.73034      171.217 
3.96053e-05      8.26698     -27.9933 
2.01607e-05      9.12881      111.730 
-5.69704e-05      11.7805      134.794 
-0.000238035      9.34247      19.2514 
7.66512e-05      9.89428     -117.704 
-0.000172144      12.7252      38.4925 
0.000135126      13.0051     -49.3030 
5.67256e-05      10.7315      151.381 
-0.000123948      5.64344      73.1023 
8.89151e-05      12.0813      145.863 
-3.80192e-05      11.7700      39.2069 
-1.95890e-05      6.30125      123.739 
-0.000310075      12.5048     -126.285 
7.23678e-05      12.9093     -38.5194 
8.58588e-05      13.8924     -136.517 
-3.67253e-05      4.41332     -43.8978 
-1.92278e-05      12.7094      38.5494 
3.64107e-05      6.44124     -152.241 
-3.74203e-05      9.26804     -43.1628 
-6.86888e-05      4.54263     -56.3099 
-1.89157e-05      6.00305      109.459 
0.000137022      12.6210      40.7591 
-3.46859e-05      6.10743     -159.488 
-5.29729e-05      10.5162     -143.195 
0.000446579      13.9759     -136.277 
-0.000180910      6.85065      132.630 
0.000163475      10.5103      152.705 
1.84806e-05      6.85729      160.403 
-3.50090e-05      10.8514     -122.811 
5.26548e-05      6.12405      160.144 
-3.53238e-05      6.02454     -45.2725 
5.14464e-05      9.79294     -147.511 
-3.49079e-05      9.36725      2.20366 
-0.000276312      10.0721      87.1559 
0.000100840      7.41879     -139.484 
5.18215e-05      9.54566     -128.024 
0.000187113      8.25749     -27.8691 
-0.000299866      10.9096     -155.409 
1.79522e-05      5.36107     -82.9247 
1.79243e-05      7.86203      158.200 
-1.78901e-05      6.31252      123.892 
3.50962e-05      13.2413     -46.4673 
5.20055e-05      6.81431      159.919 
6.89476e-05      9.89493     -117.962 
-3.48412e-05      12.4881      38.3023 
1.76847e-05      11.2005      115.377 
3.38600e-05      9.13633      111.848 
-0.000200538      10.1892     -87.5266 
-0.000221254      11.1763      126.704 
6.63714e-05      7.97418     -67.7430 
1.75623e-05      6.92172      42.5440 
4.14117e-05      10.4810     -23.3860 
1.74531e-05      8.74460      113.164 
0.000260142      6.95931     -73.1262 
-0.000109068      9.81547      45.4956 
-5.04507e-05      8.91222     -2.95853 
3.34543e-05      10.5009      116.221 
1.73129e-05      11.2188      115.333 
4.97563e-05      12.3258     -37.9478 
3.29314e-05      11.6554     -59.4759 
4.96600e-05      9.64423     -159.609 
0.000155886      7.84392      158.147 
0.000132198      9.53319     -127.928 
-1.70337e-05      7.46740     -45.4356 
-7.99141e-05      5.84673      29.2824 
9.36254e-05      11.7663      55.5286 
0.000502758      10.4624     -23.4301 
4.94979e-05      11.2272      115.423 
0.000206191      8.72666      113.214 
3.28997e-05      7.11247      174.515 
9.41211e-05      10.5092     -39.7480 
-0.000245649      11.7548     -144.418 
-1.68021e-05      10.1425      176.157 
3.22995e-05      8.91525     -32.7257 
1.66971e-05      10.7137      151.329 
3.12044e-05      7.34358      1.71567 
1.66731e-05      9.90445     -25.2196 
-1.65366e-05      14.1440     -44.0822 
6.11880e-05      9.18926      61.8152 
-0.000122480      11.2108     -124.313 
6.12315e-05      9.24432     -143.180 
0.000141533      6.98790      43.8383 
1.64159e-05      11.2877      43.8499 
-7.71911e-05      9.17313      65.3889 
3.20998e-05      6.79529      159.860 
1.62547e-05      9.89680     -118.222 
4.75413e-05      6.10500      160.079 
-4.64723e-05      10.7330     -156.733 
-3.12028e-05      10.6898     -142.145 
-4.57507e-05      12.5040      38.2447 
-0.000159040      10.2220      13.0028 
4.60586e-05      9.47327     -23.9113 
7.48948e-05      9.91278     -25.3216 
-9.15999e-05      8.91120     -2.82843 
-0.000674731      13.3462     -140.107 
7.48200e-05      5.54657      117.491 
1.59882e-05      6.13620      116.314 
4.63486e-05      9.96007      179.655 
0.000492125      13.6329     -131.313 
-0.000193613      11.5396      32.6164 
-4.58900e-05      10.8569     -122.665 
1.58255e-05      13.2272     -46.4091 
7.66436e-05      9.90604     -118.322 
9.03622e-05      10.2884      152.188 
0.000259814      11.2089      115.467 
5.98460e-05      10.1387     -128.995 
0.000220790      11.3018      43.7814 
0.000103540      10.6959      151.277 
4.56374e-05      6.39911     -65.4365 
-3.07521e-05      10.1412      176.267 
3.05606e-05      9.09718     -27.3513 
-0.000268853      10.9303      153.247 
-0.000258287      12.2766      53.7458 
-0.000152717      7.97932     -39.9146 
-3.05650e-05      12.0759      47.6166 
1.54787e-05      10.6762      69.4939 
-4.49526e-05      10.6573      108.945 
-1.54512e-05      3.85759     -128.468 
-4.43700e-05      12.4441     -53.1653 
1.53704e-05      12.0652      145.811 
1.53821e-05      11.4952     -117.679 
-5.78824e-05      11.7713     -144.475 
0.000301627      12.6364      40.6991 
-7.14880e-05      12.9137      39.5323 
8.63605e-05      6.08666      160.017 
0.000455570      11.4081      151.861 
-0.000122689      9.82550      35.8897 
-1.51602e-05      4.53184     -56.5152 
-1.51043e-05      9.23941     -43.1571 
-7.26791e-05      7.25424     -62.9393 
1.51074e-05      8.22960     -115.630 
0.000175525      7.83446      41.5871 
-0.000149060      10.1876      63.0311 
-2.95598e-05      7.69256      112.633 
4.39339e-05      10.1794      81.9828 
5.49639e-05      4.57930      18.5953 
-0.000157183      9.90049     -134.180 
9.70056e-05      9.03534      152.301 
-2.88736e-05      10.5279     -143.110 
-0.000166289      9.67693     -97.2435 
0.000165926      11.5047     -117.768 
1.47117e-05      4.56642     -86.9857 
0.000119408      10.1507     -157.526 
2.84968e-05      9.83856     -103.160 
2.86765e-05      9.48904      111.643 
0.000200446      6.81964     -39.5263 
2.87769e-05      4.80228     -88.3256 
5.67548e-05      9.91567     -118.425 
-1.44823e-05      5.82972      29.3762 
-0.000182772      13.1670      45.5541 
9.23660e-05      9.10650     -27.4645 
-1.44195e-05      9.94851     -53.9132 
1.44239e-05      8.95565      95.1245 
-6.89755e-05      10.1615      176.274 
-5.46827e-05      6.87149     -51.2640 
-1.43434e-05      3.87288     -128.289 
-0.000155215      8.93068     -2.82226 
-1.43293e-05      8.50795      17.3706 
-0.000105737      9.95654      86.6602 
1.42865e-05      6.39072     -65.6017 
0.000103999      12.9919     -49.3707 
8.16397e-05      10.3063      152.241 
-1.42085e-05      11.1733     -134.276 
-4.04968e-05      11.7663      134.724 
-0.000218006      13.2292      39.4161 
0.000116205      10.4092     -105.718 
-6.79966e-05      10.9192     -155.545 
-0.000378480      10.3434     -17.2085 
-4.05950e-05      7.68479      112.493 
1.40666e-05      10.0999      98.0807 
-4.06960e-05      9.18127      65.2782 
6.71092e-05      9.84486     -106.887 
-4.05576e-05      13.3501      134.759 
-7.86922e-05      10.1736     -34.3453 
1.39874e-05      4.56540     -87.2396 
4.04684e-05      8.93442      95.0062 
1.39208e-05      9.92233      151.989 
5.41531e-05      11.4069      119.174 
2.74653e-05      10.1968      82.1072 
1.38542e-05      6.06562     -64.6174 
2.70652e-05      12.1077     -37.0780 
6.58870e-05      9.16022      9.29642 
-1.38180e-05      10.1730     -95.8679 
-0.000149478      9.89511      93.1299 
-0.000155854      11.8826     -145.562 
-0.000240367      9.72432     -73.0179 
2.73434e-05      10.6788      151.227 
0.000202799      10.0972      97.9711 
2.67789e-05      8.46494      106.893 
7.60855e-05      10.5222     -39.8328 
1.36851e-05      10.3211     -74.3733 
-0.000262146      11.7415      39.1928 
6.45420e-05      11.7714      55.6606 
-1.37018e-05      10.7052     -142.210 
-3.97177e-05      11.9724     -55.2730 
5.15522e-05      12.7583     -43.9825 
-6.37267e-05      10.4170     -149.547 
-3.96466e-05      8.40061     -9.72988 
2.70188e-05      9.92533     -118.528 
-0.000238605      12.4928     -126.210 
6.36593e-05      6.94984      42.5496 
-5.22980e-05      11.2223     -124.399 
-5.31671e-05      11.0110      153.108 
1.35310e-05      9.19849      61.7081 
2.67066e-05      10.3157     -74.4817 
2.65923e-05      9.19959      158.174 
-9.03377e-05      10.1932     -95.8562 
-3.87036e-05      6.87873      132.644 
3.91831e-05      6.90410     -7.82715 
-2.64887e-05      9.80128      45.5800 
0.000185714      9.90862      82.3449 
2.64275e-05      13.7037     -42.3990 
1.34467e-05      10.1264     -128.909 
-1.33919e-05      10.6933     -142.292 
3.87249e-05      9.97377      152.662 
1.34468e-05      6.38494     -74.7437 
1.33753e-05      4.78147     -88.5612 
7.68281e-05      10.1995      81.9987 
-6.54589e-05      10.9273     -155.452 
3.95522e-05      10.6705      151.083 
3.88633e-05      6.06762      159.952 
-2.61407e-05      11.3398      55.2720 
-1.32648e-05      7.24504     -63.0820 
-1.32860e-05      10.5121     -123.358 
1.32338e-05      9.90753     -118.584 
-3.82776e-05      11.3006     -147.209 
-5.06359e-05      7.85913      120.090 
1.32114e-05      10.7144      68.0771 
2.59253e-05      8.02298      43.0823 
1.31777e-05      6.05696     -64.7906 
-1.31963e-05      12.5228      38.0593 
-0.000198795      10.0549     -57.9230 
0.000210406      9.18131      61.6504 
-0.000260396      13.9162     -45.1158 
-8.80802e-05      10.7093     -142.358 
-2.54553e-05      12.0681      41.7738 
0.000137707      13.3944     -42.2163 
-2.57949e-05      8.53274     -39.9591 
2.57755e-05      11.4874     -117.814 
5.09820e-05      9.91688     -118.683 
3.86242e-05      11.4147      119.035 
7.62847e-05      9.15905      163.899 
0.000260294      13.2707     -43.4122 
-1.29707e-05      9.51493      96.1526 
-2.54523e-05      9.41227     -109.359 
0.000135313      5.53767      117.766 
-7.55478e-05      10.6131      121.595 
1.29481e-05      7.43052     -144.644 
-0.000136038      10.9377     -155.589 
1.28942e-05      10.1168     -128.658 
-0.000147590      12.0211      53.7975 
1.28638e-05      10.3154      152.145 
-0.000112695      11.0372      153.064 
-6.28412e-05      9.58815      59.9576 
-1.28522e-05      10.1817      176.281 
-9.96287e-05      9.36160      19.2105 
-8.66547e-05      13.3359      134.697 
6.21539e-05      8.61210      20.2429 
2.55148e-05      9.60050     -75.1545 
-3.80218e-05      11.3599      46.4988 
5.02733e-05      5.92161     -116.046 
0.000171766      9.69627     -115.929 
0.000171478      9.85097     -174.172 
6.18409e-05      10.7348      39.8615 
1.27854e-05      10.1823      81.8699 
1.27500e-05      13.8777     -136.459 
-6.24034e-05      9.67941     -97.3581 
-6.15801e-05      3.90681     -137.491 
-1.27416e-05      12.2929      53.8016 
-9.70028e-05      13.1366      50.2514 
2.52661e-05      10.3298     -74.6200 
-1.27360e-05      8.53992      17.1612 
-7.42338e-05      9.68803      94.3800 
-0.000110494      10.2104     -87.4179 
-0.000171983      13.1341      50.1269 
-1.26832e-05      10.2627     -124.279 
-2.45923e-05      10.2012      24.8081 
6.21417e-05      10.6527      151.030 
2.49938e-05      9.44666     -35.6091 
0.000158702      10.8301     -55.0789 
0.000134456      11.4220      118.899 
0.000122187      10.2247     -155.991 
-1.25697e-05      9.67327      138.100 
-6.24486e-05      14.1721     -44.0861 
-0.000135025      10.4141      58.5066 
-1.25501e-05      10.9271      137.371 
-2.50135e-05      11.9891     -55.3282 
1.25685e-05      10.3327      152.196 
-0.000169998      10.2737     -124.369 
2.48378e-05      10.0069     -2.17453 
-8.54837e-05      11.2276     -124.255 
0.000109833      11.3164      43.7104 
-2.47227e-05      7.06208     -148.788 
3.69561e-05      14.0580      44.4226 
-7.30186e-05      12.4645      126.190 
-7.28361e-05      11.8852     -122.354 
3.66986e-05      9.83139     -107.034 
-3.70529e-05      7.27016     -24.0279 
4.88162e-05      9.99242     -173.103 
2.46964e-05      13.8467     -135.876 
-2.46903e-05      10.6507      108.842 
7.28821e-05      8.24804     -27.7447 
7.35402e-05      9.14031      163.865 
4.88099e-05      9.30441     -75.3070 
-4.90263e-05      5.35999     -129.091 
-1.23942e-05      10.8361      48.2169 
4.86947e-05      13.6329      138.687 
-7.27907e-05      11.2070      34.8254 
2.44320e-05      10.3442     -74.7540 
-0.000169237      11.8993     -145.617 
-6.07404e-05      10.9781     -23.8563 
-6.05994e-05      9.84193      35.8205 
1.23450e-05      9.93466     -118.627 
-2.45075e-05      8.41486     -45.0975 
-9.64900e-05      10.9478      153.293 
6.07574e-05      5.93915     -115.963 
1.22821e-05      9.81568     -32.2649 
-3.63297e-05      11.3746      46.5691 
-0.000108489      11.0227     -156.131 
-3.63056e-05      11.1601      126.767 
-6.04512e-05      7.25165     -24.0931 
-1.22987e-05      9.27615      75.0071 
7.22052e-05      9.06886     -11.0626 
6.02547e-05      6.84711     -39.5483 
2.42848e-05      13.6756      47.6085 
7.24026e-05      10.2293      99.1127 
-8.46229e-05      11.0645      153.018 
-3.62956e-05      9.93826      86.5370 
-3.61991e-05      11.9775     -55.4079 
2.42512e-05      6.97330      43.9536 
1.22351e-05      9.34754      14.2437 
-1.22145e-05      8.25981     -45.5889 
-6.04737e-05      9.90092     -134.020 
-1.21933e-05      9.60570      60.0181 
1.21901e-05      13.9899     -136.217 
4.81256e-05      10.0279     -2.28581 
-2.42860e-05      13.3960      130.277 
3.61909e-05      9.94438     -118.729 
-1.21926e-05      9.43870     -102.358 
-2.42518e-05      10.7247     -142.422 
-3.63015e-05      8.77127      145.403 
-2.40820e-05      9.88603     -144.219 
-2.43161e-05      10.2113     -95.7315 
9.62226e-05      13.4109      139.777 
2.42393e-05      6.83207     -39.6525 
-6.01170e-05      10.5852      121.559 
-8.40527e-05      12.1284     -143.111 
7.20641e-05      12.8502     -38.6180 
-2.41654e-05      6.81906     -148.922 
3.60093e-05      13.8327     -135.820 
6.00385e-05      12.0374      145.833 
-2.42067e-05      9.59559      60.1229 
8.41213e-05      14.0719      44.3670 
6.02704e-05      10.4701     -23.5280 
-4.80869e-05      9.87420     -144.315 
1.21061e-05      9.92662     -118.785 
-3.61143e-05      9.66268     -97.4920 
9.59567e-05      13.3795     -42.2746 
3.59859e-05      6.88477     -7.84926 
4.79244e-05      10.6357      150.979 
-4.80723e-05      9.38003      19.1713 
-1.20390e-05      9.65975      138.190 
4.79023e-05      9.11586     -27.5775 
2.40312e-05      9.14023      9.31694 
-1.20940e-05      10.6444      108.743 
-3.59774e-05      11.3067     -147.351 
1.20878e-05      9.13470      163.987 
-2.40889e-05      8.42917     -45.0000 
4.79572e-05      11.4173      151.774 
2.39692e-05      6.96477      42.4369 
-2.39927e-05      9.45849     -102.332 
-2.40103e-05      10.7285     -142.574 
-1.20366e-05      10.0731      87.0408 
2.39749e-05      10.3738      19.4835 
-1.20118e-05      10.1850     -34.4394 
1.20152e-05      10.1852      81.7571 
-3.59740e-05      10.2307     -95.7206 
-5.98653e-05      6.84623     -148.861 
7.16205e-05      13.2849     -43.3544 
-3.58967e-05      9.98023      90.2283 
3.58607e-05      13.6195      138.751 
4.78762e-05      9.11522      163.952 
-2.39730e-05      11.7383     -144.360 
4.78230e-05      12.6541     -47.4345 
-4.77705e-05      8.75460      145.328 
-2.39016e-05      9.91449     -134.102 
-1.19936e-05      10.5239     -142.955 
4.77009e-05      13.2845     -138.052 
5.96355e-05      11.3311      43.6396 
1.19431e-05      10.2929      82.2952 
-1.19552e-05      10.4035      58.6018 
-2.38687e-05      10.6636      108.708 
4.78278e-05      11.4260      151.908 
-2.38354e-05      13.3221      134.637 
-2.38769e-05      9.61251      60.1808 
-3.57689e-05      11.1954      34.7403 
2.38829e-05      10.4147     -105.826 
-2.38554e-05      10.7323     -142.725 
-2.38446e-05      10.3968      58.4483 
1.19222e-05      9.56607     -8.53499 
-3.57396e-05      13.9299     -45.0589 
-2.38124e-05      10.0923      87.1616 
-1.19349e-05      11.7670      134.587 
1.19357e-05      8.59309      20.2896 
3.57694e-05      13.9073      43.3100 
1.19062e-05      5.93030     -115.787 
-1.19247e-05      10.9596     -23.8992 
2.38338e-05      11.4397      118.850 
-1.19583e-05      3.89190     -137.289 
-1.18898e-05      5.40072     -129.294 
-1.18991e-05      11.6782     -144.266 
1.18814e-05      11.0617     -112.764 
-1.18796e-05      12.4680      143.019 
1.19255e-05      13.5072     -44.2212 
-1.19097e-05      13.3337     -140.171 
-1.19345e-05      7.24341     -23.9468 
-1.19412e-05      10.2489     -95.6008 
-1.19325e-05      10.7516     -156.776 
-1.18752e-05      8.84979      142.067 
-1.18886e-05      11.7258      39.2554 
1.19133e-05      14.0040     -136.272 
-1.19112e-05      10.7360     -142.871 
-1.19144e-05      12.5016     -135.129 
1.19225e-05      10.6100      62.3711 
! Tentative model.
! Flux (Jy) Radius (mas)  Theta (deg)  Major FWHM (mas)  Axial ratio   Phi (deg) T \
! Freq (Hz)     SpecIndex
-1.51158e-05      10.8149     -68.1789 
