! Center RA: 12 21 31.69052,  Dec: +28 13 58.50011 (2000.0)
! Established model.
! Flux (Jy) Radius (mas)  Theta (deg)  Major FWHM (mas)  Axial ratio   Phi (deg) T \
! Freq (Hz)     SpecIndex
 0.0356766     0.121655     -80.5377 
0.00683980     0.101980     -78.6901 
0.00506826     0.120000     -90.0000 
0.00383587    0.0824621     -75.9638 
0.00134029     0.100000     -90.0000 
0.000270006    0.0632456     -71.5651 
0.00264500    0.0565685     -45.0000 
0.00427765    0.0447214     -26.5651 
0.00363326     0.121655     -99.4623 
0.00649640     0.220000      90.0000 
0.00421819    0.0400000      0.00000 
0.00357118     0.141421     -98.1301 
0.000376933    0.0282843      135.000 
0.00106193    0.0721110      146.310 
0.00133767     0.220907      95.1944 
0.00125447    0.0600000      0.00000 
0.00158431     0.140000     -90.0000 
0.00149089    0.0848528      135.000 
0.00164628     0.240832      94.7636 
0.00367709     0.809938      122.905 
0.000540471     0.128062      128.660 
0.00413388     0.160000     -90.0000 
0.000417974     0.141421     -171.870 
0.00150980     0.144222      123.690 
0.00247457    0.0824621     -14.0362 
0.000139515     0.260768      94.3987 
0.00172195     0.145602     -164.055 
0.00118315     0.282843      98.1301 
0.00289821     0.152315      113.199 
0.00219387     0.837616      123.311 
0.000258339     0.134164      116.565 
0.00202109     0.826801      122.152 
0.00161230     0.305941      101.310 
0.00146544      2.09990      107.745 
0.00118747     0.329848      104.036 
0.00190060     0.101980     -11.3099 
0.000700353     0.200000      90.0000 
9.35041e-05     0.164924     -165.964 
0.00104262     0.349285      103.241 
0.000355775     0.152315     -156.801 
0.000270300     0.161245     -82.8750 
0.000837647      2.12509      108.094 
8.77325e-05     0.865332      123.690 
0.000748169     0.181108     -83.6598 
0.000663367     0.956033      127.349 
0.000328375     0.170880     -159.444 
0.000318956     0.392938      104.744 
0.000160092     0.782304      122.471 
7.96319e-05     0.170880      110.556 
7.88534e-05     0.200998      95.7106 
7.86776e-05     0.871321      121.866 
! Tentative model.
! Flux (Jy) Radius (mas)  Theta (deg)  Major FWHM (mas)  Axial ratio   Phi (deg) T \
! Freq (Hz)     SpecIndex
0.000745683     0.161245      97.1250 
0.000132347    0.0721110      146.310 
0.000510913    0.0632456      161.565 
0.00222431     0.181108      96.3402 
0.000592052    0.0600000      180.000 
0.00103889      2.15713      107.259 
0.000344721    0.0632456     -161.565 
0.000114110    0.0894427     -153.435 
0.00215871     0.854400      122.574 
0.000330723     0.100000     -143.130 
0.000709465     0.200998      95.7106 
0.000532503      2.17624      107.103 
0.000212264     0.100000     -126.870 
0.000104514    0.0447214      153.435 
0.000602555     0.116619     -120.964 
0.000502091      2.19536      106.949 
0.000473276    0.0565685      135.000 
0.000100865     0.280713      94.0856 
0.000196631     0.322490      97.1250 
0.000379612      2.21450      106.798 
9.63983e-05     0.345254      100.008 
0.000998444     0.126491     -108.435 
0.000373617     0.364966      99.4623 
0.000359682      2.10723      106.543 
0.000239984     0.145602      105.945 
0.000278285     0.793221      123.690 
0.000179764    0.0721110      123.690 
0.000527822      2.23365      106.650 
0.000527544     0.882043      122.969 
0.000779751     0.407922      101.310 
0.000439646     0.765506      123.275 
8.95223e-05      2.10162      106.020 
8.54026e-05      2.13467      102.995 
0.000496687     0.141421     -98.1301 
0.00135144     0.748866      124.114 
0.000863980     0.898888      122.276 
0.000240950      2.13026      102.470 
0.000318296      2.08806      106.699 
0.000473303      2.25858      106.991 
0.000544414    0.0447214      116.565 
8.16800e-05     0.325576      100.620 
8.11627e-05     0.431741      103.392 
0.00114832     0.451221      102.804 
0.000685760     0.140000     -90.0000 
0.000379596     0.305941      101.310 
0.000425972      2.12603      101.944 
0.000288415     0.184391      102.529 
0.000286731      2.09390      107.223 
0.000357223      2.28359      107.324 
0.000947894     0.915860      121.608 
0.000142844    0.0200000      90.0000 
7.19114e-05     0.160000     -90.0000 
0.00145400     0.161245     -82.8750 
7.08565e-05     0.286356      102.095 
0.000770295     0.291204      105.945 
0.000591249    0.0282843      45.0000 
0.000323431      2.09990      107.745 
0.000198904      2.30269      107.176 
0.000812161     0.732393      124.992 
0.000424414      2.12198      101.416 
0.000126696      2.30868      107.650 
0.00131516     0.470744      102.265 
0.000121736     0.164924      104.036 
0.000417649     0.932952      120.964 
0.000296967      2.32775      107.501 
0.000121260    0.0447214      26.5651 
0.000121045     0.760263      125.362 
0.000236583      2.10609      108.263 
0.000119637     0.944034      126.384 
0.000506388    0.0600000      0.00000 
0.000115485     0.956033      127.349 
0.000886137     0.297321      109.654 
0.000219990     0.968297      128.290 
0.000111484      2.33384      107.969 
0.000164298      2.11244      108.778 
0.000539700     0.940213      119.291 
0.000459232      2.11811      100.886 
0.000162853     0.164924     -75.9638 
5.50554e-05      2.04216      104.172 
0.000159322      2.35287      107.819 
0.000311690     0.181108     -83.6598 
0.000401772     0.980816      129.207 
0.000252931      2.14448      109.618 
0.000154822    0.0800000      0.00000 
0.000150328      2.01792      103.761 
0.000438020    0.0824621      104.036 
0.000246808      2.35907      108.281 
5.10111e-05    0.0824621     -14.0362 
0.000330898     0.744043      126.254 
0.000999936     0.184391     -77.4712 
0.000143672     0.349285      76.7595 
0.000286513     0.101980     -11.3099 
0.000920050     0.957706      118.706 
0.000186317      2.15128      110.120 
0.000122439     0.101980      101.310 
9.20837e-05      2.09848      100.989 
0.000522521     0.993579      130.101 
0.000749150     0.490306      101.768 
0.000225076      2.38437      108.587 
4.64727e-05      2.01326      103.208 
4.56808e-05     0.161245     -150.255 
0.000219701     0.304631      113.199 
0.000303987     0.134164     -26.5651 
0.000253994     0.354401      73.6105 
8.82673e-05      1.99379      103.339 
0.000478343     0.716101      125.910 
0.000173847      2.15824      110.618 
0.000712132      2.09476      100.452 
0.000278653     0.178885     -153.435 
0.000166943      2.39082      109.041 
4.21795e-05      1.96977      102.907 
0.000419685     0.323110      111.801 
0.000247420      2.11443      100.353 
4.17365e-05      2.16536      111.113 
4.13756e-05      1.94587      102.465 
0.000160885      2.19126      111.413 
0.000199212     0.126491     -18.4349 
0.000234254      1.92208      102.011 
0.000222154     0.984886      119.168 
0.000156948      2.41628      109.335 
0.000440860      1.00658      130.972 
0.000115230     0.341760      69.4440 
0.000260177      2.19864      111.898 
6.68869e-05     0.161245     -29.7449 
0.000184126      2.42297      109.781 
0.000543382     0.152315     -23.1986 
0.000144152     0.360555      70.5600 
0.000178643      1.90252      102.137 
0.000603845     0.509902      101.310 
0.000726322     0.203961     -78.6901 
0.000235963      2.20617      112.380 
0.000571443     0.196977     -156.038 
0.000137363     0.700000      126.870 
0.000203197      2.42981      110.225 
0.000470002     0.349285      66.3706 
0.000434042      1.89842      101.547 
3.39655e-05      2.23231      112.659 
0.000955733     0.331059      115.017 
0.000669847      1.03479      131.082 
0.00109871     0.672012      126.529 
6.42592e-05      2.26636      113.398 
9.55161e-05      1.01213      119.604 
0.000210037     0.913017      118.811 
0.000153048      2.43680      110.666 
0.000183645      3.64856      127.875 
0.000119185      2.18009      112.094 
9.09628e-05      2.42528      111.275 
9.01193e-05      2.29268      113.658 
0.000146935     0.145602     -15.9454 
3.04983e-05      2.17265      111.606 
0.000220189      1.02956      119.055 
0.000317095      2.51372      105.695 
0.000270620     0.994585      74.8459 
0.000237564      1.20017      66.4253 
0.000163075      3.64516      128.316 
8.23815e-05      2.31905      113.912 
0.000331684     0.178885     -26.5651 
2.80978e-05      2.44393      111.105 
0.000563221     0.357771      63.4349 
5.55406e-05      2.15407      111.801 
0.000215310      2.09122      99.9128 
0.000966496      1.87883      101.669 
0.000990911     0.656049      127.569 
0.000157084      2.43261      111.714 
0.000284990     0.885889      118.301 
5.35230e-05      2.16157      112.294 
5.24857e-05     0.107703      111.801 
0.000222869     0.529528      100.886 
0.000533954      3.84666      135.000 
7.54655e-05     0.141421     -8.13010 
7.61539e-05      2.16924      112.782 
5.06881e-05      2.30078      114.114 
0.000256587     0.215407     -158.199 
4.97612e-05      3.63280      128.069 
0.000114345      2.63788      130.696 
0.000162964      1.05679      119.476 
0.000285189      4.88148      123.299 
7.14611e-05      1.01390      75.1414 
0.000452562      1.04805      131.906 
4.81443e-05      2.15081      112.989 
0.000157952      2.45120      111.541 
0.000543214      2.07152      100.008 
0.000110745      3.62949      128.512 
0.000110989      2.32723      114.362 
7.04154e-05      3.84083      125.676 
0.000158276      3.83254      135.211 
6.46350e-05      3.66005      126.557 
4.53892e-05     0.116619      120.964 
9.08680e-05     0.989545      75.9638 
5.48836e-05     0.322490      119.745 
0.000284008     0.223607     -79.6952 
6.58497e-05     0.140000      0.00000 
0.000483715      2.53298      105.573 
0.000398944      3.12832      120.336 
2.31488e-05      2.15870      113.477 
0.000265221     0.188680     -32.0054 
0.000173444      3.82920      125.433 
4.44978e-05      2.30903      114.567 
6.63929e-05      3.64401      126.744 
0.000559257      2.62488      130.365 
2.26390e-05      2.16675      113.962 
0.000171689      1.22654      65.9427 
0.000279527      4.86477      123.429 
4.40163e-05      2.13551      112.001 
0.000104350      3.06438      125.972 
0.000296888      2.14401      126.656 
0.000201762      1.00896      76.2392 
0.000150827      3.04821      126.193 
2.13405e-05     0.737835      122.829 
2.13086e-05      2.17495      114.444 
0.000211441      1.04709      118.523 
2.10486e-05     0.128062      128.660 
0.000466520     0.208806     -163.301 
0.000389997     0.367151      60.6422 
6.14233e-05      2.12810      111.501 
0.000116431      2.45862      111.975 
0.000262438      3.84552      125.261 
2.05907e-05     0.761577      119.932 
7.77350e-05     0.141421      135.000 
5.81570e-05     0.778974      119.197 
3.89413e-05      2.31741      115.017 
0.000159418      3.64818      126.304 
3.71584e-05      2.18330      114.922 
7.44919e-05      3.61707      128.264 
3.89254e-05      2.36415      119.384 
1.92605e-05      2.12085      110.999 
5.61056e-05      4.82066      124.349 
0.000665570     0.421900      31.4296 
0.000211220     0.769415      117.897 
0.000249969      1.75111      103.878 
0.000243297      2.39140      119.567 
0.000121555      2.09504      110.684 
0.000108411      4.62173      122.452 
0.000371690      3.11108      120.522 
0.000671249      1.07629      131.987 
0.000393383     0.984886      77.0926 
0.000105236     0.156205      140.194 
1.81678e-05      2.10219      111.194 
0.000258290      3.07044      133.152 
1.78834e-05      4.59848      123.828 
9.12690e-05      2.43680      106.204 
1.75366e-05      4.43306      122.471 
4.52299e-05     0.533667      102.995 
0.000252620      4.41620      122.611 
1.73803e-05      2.34546      114.161 
0.000410785      2.12800      126.978 
8.83724e-05      3.20656      113.527 
6.75492e-05      4.81552      124.680 
1.72971e-05      1.00439      77.3474 
0.000206584      3.83401      125.017 
0.000371962     0.228035     -74.7449 
0.000128355      2.22612      98.7853 
3.34362e-05      2.47718      111.801 
0.000186240     0.200000     -36.8699 
0.000153238      4.62796      122.110 
0.000149875      3.81838      135.000 
9.41975e-05      1.05546      117.051 
8.66182e-05      2.35372      114.605 
0.000152486      2.18833      120.784 
1.65172e-05      3.61386      128.709 
0.000837746      4.23873      124.815 
0.000233144     0.903549      117.699 
0.000158708      3.05267      125.669 
0.000137762      4.82692      124.875 
0.000415668      3.19631      113.999 
1.61792e-05     0.184391      139.399 
1.60867e-05      4.60964      124.035 
0.000104925      2.53842      106.007 
7.69437e-05     0.172047      144.462 
8.57683e-05      3.60139      128.461 
0.000114897      2.07634      110.879 
7.53642e-05      3.66431      126.119 
0.000592252      2.40133      119.982 
0.000294097      1.93494      119.745 
0.000298076     0.876584      117.150 
4.44490e-05      2.49576      111.631 
7.28967e-05      1.41039      108.178 
9.40564e-05      1.25300      65.4804 
4.13474e-05      4.62087      124.240 
8.24186e-05      1.74643      103.241 
1.46331e-05     0.212603      138.814 
0.000199967      3.81764      125.189 
6.73317e-05      2.37192      114.404 
1.44840e-05      2.24589      98.7074 
0.000125477      1.42941      107.928 
0.000132615     0.200000      143.130 
0.000238146      2.24294      98.2024 
0.000120613      4.83839      125.070 
0.000300468      2.63401      113.256 
0.000202510      4.39936      122.751 
0.000341364      3.12128      120.838 
0.000150349      3.29120      110.638 
9.01748e-05     0.384708      62.1027 
0.000104996      1.31727      120.069 
0.000100445     0.349285      113.629 
0.000268126      3.65256      125.866 
0.000274591      1.87040      65.3532 
8.54341e-05      1.05546      62.9494 
0.000181195     0.980612      78.2317 
2.57429e-05      4.88729      122.975 
4.79249e-05      2.39015      114.206 
5.05412e-05      2.05767      111.077 
0.000121046      1.62997      96.3402 
3.62684e-05      1.04652      116.075 
0.000196793      1.88521      94.2588 
1.25389e-05      4.63215      124.445 
4.85103e-05      2.06495      111.595 
0.000172477      4.89820      123.171 
5.64522e-05      3.58898      128.211 
1.22846e-05      2.43130      105.751 
9.24709e-05      4.83359      125.400 
3.44219e-05      4.61736      121.900 
8.38595e-05     0.161245      7.12502 
0.000248157      1.32740      120.816 
0.000631555      2.88735      102.400 
7.88290e-05     0.203961     -168.690 
0.000267374      3.09871      133.169 
0.000164887      2.55225      105.452 
0.000163499      3.80615      124.943 
7.30684e-05      4.61567      124.585 
0.000318217      3.10722      106.452 
0.000155036     0.216333      146.310 
0.000263712      2.41205      105.880 
0.000116760      2.04636      111.801 
2.23343e-05     0.553173      102.529 
1.15783e-05     0.228035      142.125 
1.15017e-05      2.03902      111.280 
0.000336414      4.07141      120.722 
1.13879e-05      4.84991      125.263 
0.000333135      1.62788      95.6405 
0.000123957      1.17644      125.311 
0.000116436      1.06471      61.9908 
2.16971e-05      2.26566      98.6308 
0.000195754      2.19864      121.232 
0.000305560      2.64197      113.654 
0.000117345     0.961041      77.9885 
0.000141899      3.12640      106.348 
1.07763e-05      3.08415      133.423 
0.000229611      2.26274      98.1301 
0.000160009     0.722496      85.2364 
0.000152251      4.84520      125.593 
0.000375235     0.956033      142.651 
7.25212e-05     0.228035     -164.745 
5.05469e-05      1.24740      102.031 
0.000134801      3.36809      105.852 
9.50272e-05      4.63435      121.769 
1.02027e-05      1.03788      115.084 
0.000282640      1.91760      120.041 
0.000392309     0.432666      33.6901 
3.74065e-05      3.57665      127.959 
0.000127414      2.60967      130.649 
0.000121014      1.64779      95.5722 
9.06463e-05     0.205913      150.945 
8.73468e-05      4.42701      122.829 
9.66018e-06      1.04785      113.629 
5.45938e-05      4.25516      124.661 
0.000102950      1.26696      101.842 
5.20112e-05      1.27122      65.8545 
0.000460442      2.02781      112.011 
0.000293499     0.234094     -70.0169 
7.85762e-05      3.19312      116.405 
8.95226e-06      3.04105      125.362 
7.98063e-05      3.09386      120.710 
0.000191309     0.721110      86.8202 
0.000211053     0.223607     -169.695 
9.68001e-05      1.33462      119.638 
4.59591e-05      2.82347      124.028 
0.000220082     0.611882      101.310 
2.46769e-05      1.04000      112.620 
6.97144e-05     0.184391      12.5288 
7.88281e-05     0.957079      79.1597 
2.71721e-05      2.59669      130.314 
1.67220e-05      3.56438      127.706 
9.88301e-05      1.07424      61.0490 
0.000107797     0.212603     -41.1859 
0.000141486      4.85687      125.785 
0.000154307     0.233238      149.036 
0.000150921      3.20206      116.725 
0.000180593      1.86387      93.6914 
0.000151712     0.340000      118.072 
1.52141e-05      4.62705      124.789 
1.58015e-05      3.56808      127.255 
0.000134610      3.79473      124.695 
0.000122486      2.28543      98.5556 
6.36312e-05      4.41022      122.969 
0.000136820      1.87883      64.7989 
8.09049e-05      1.08977      132.769 
0.000101195      3.38195      105.433 
6.90123e-05      3.55601      126.999 
3.51067e-05      1.03247      111.595 
2.16304e-05      3.04086      135.799 
0.000100375      1.26301      100.954 
0.000209688      1.34462      120.379 
2.13837e-05      3.02695      136.071 
1.42185e-05     0.572713      102.095 
7.54201e-05      1.09142      76.2184 
0.000113255      2.28254      98.0591 
8.47898e-05      2.98751      121.030 
7.73962e-05      4.62385      121.559 
4.92888e-05     0.937443      78.9298 
3.03065e-05     0.411825      60.9454 
0.000132221     0.223607      153.435 
0.000177141      1.18811      126.098 
0.000172202      3.04138      136.332 
6.17552e-05      1.08407      60.1240 
4.69049e-05      4.91496      123.043 
6.33977e-05      3.69177      136.097 
5.78691e-05     0.203961      11.3099 
2.93714e-05      4.61064      124.931 
1.89147e-05      2.36212      115.046 
8.10477e-05      3.64088      125.611 
8.17832e-05      2.14308      67.5035 
9.07280e-05      4.86859      125.975 
3.00251e-05     0.583095      149.036 
3.94538e-05      2.81233      123.690 
4.46097e-05      1.02528      110.556 
4.16116e-05      3.55218      127.451 
6.18008e-06      4.39345      123.111 
9.21679e-05      1.10454      132.064 
0.000111096      2.16157      67.7064 
4.93549e-05      2.61197      130.030 
0.000185296      4.17200      126.815 
5.94807e-06      1.48661      107.216 
1.16801e-05      4.38771      123.473 
0.000138594      1.28265      100.784 
7.09263e-05      3.39600      105.018 
4.66514e-05      2.38025      114.842 
5.94596e-05      1.90263      123.857 
0.000122448     0.894427      116.565 
6.64339e-05     0.573062      150.751 
2.70710e-05      1.09417      59.2159 
2.17327e-05      1.62049      114.034 
3.70650e-05      2.66030      113.481 
1.11054e-05      3.54401      126.741 
0.000148313      2.30521      98.4816 
2.10575e-05      2.11206      127.304 
2.61639e-05      2.38738      105.550 
1.57982e-05      3.12698      133.186 
3.64608e-05      3.54006      127.194 
2.08359e-05      1.09636      75.2032 
1.55395e-05      4.36023      124.346 
2.87923e-05     0.933809      80.1342 
7.00010e-05      1.62874      114.677 
1.01889e-05     0.592284      101.689 
1.51851e-05      1.10454      58.3245 
7.93207e-05     0.914112      79.9194 
1.51424e-05      2.86782      102.485 
4.97144e-06      3.41022      104.607 
4.96019e-06     0.439090      59.9314 
0.000354478      5.10533      134.841 
0.000334915      6.63931      114.944 
0.000211766      3.65962      139.433 
1.19581e-05      4.36811      114.335 
0.000100620      4.28565      115.130 
0.000164991      4.38634      114.228 
0.000312194      5.09125      134.682 
2.18501e-05      6.62118      115.017 
0.000141695      4.55706      112.175 
8.25740e-05     0.820244      88.6028 
0.000325913      6.62966      115.174 
0.000149131      1.11571      75.4655 
4.94614e-05      2.39842      114.642 
6.70355e-05      2.52175      111.886 
3.52590e-05      1.01193      108.435 
7.81231e-05     0.360555      3.17983 
9.57891e-06     0.741080      86.9059 
4.47885e-05      5.09117      135.000 
0.000154180     0.563560      152.526 
7.21768e-05     0.216333     -33.6901 
0.000110977      1.29877      99.7524 
4.11746e-05      1.30231      100.620 
0.000120966      2.90269      101.929 
2.54079e-05      2.71603      126.617 
1.74424e-05      2.00180      111.695 
8.33091e-05      4.89220      126.355 
5.92666e-05      1.86269      93.0775 
8.40517e-05     0.360000      0.00000 
3.61465e-05      2.57154      105.333 
5.75391e-05      1.36191      119.954 
5.72036e-05      4.45695      125.687 
2.17099e-05      2.41139      120.393 
4.16600e-05      4.88803      126.682 
4.88482e-05      1.88743      64.2495 
3.51643e-05      1.00578      107.354 
4.15940e-05      2.70415      126.277 
4.79794e-05      1.22066      124.992 
2.67184e-05      3.79989      124.276 
4.70410e-05     0.910824      81.1582 
3.45088e-05      1.96010      126.285 
3.32842e-05      3.05588      136.591 
1.93991e-05      3.52023      126.219 
1.94951e-05      3.41977      103.874 
1.29355e-05      4.26755      115.244 
1.30452e-05      1.77054      103.722 
1.93479e-05      3.36440      127.755 
1.30478e-05      2.40840      114.011 
1.26343e-05     0.912360      116.003 
6.40393e-06      2.88312      102.011 
1.24506e-05      2.50320      112.056 
6.31528e-06      4.74017      113.103 
1.24320e-05      1.97200      126.754 
6.17603e-06      4.73236      112.881 
6.17740e-06     0.228035     -37.8750 
-1.83321e-05      3.90779      129.393 
6.11023e-06      3.19356      115.602 
6.11559e-06      2.62275      130.980 
6.10980e-06      3.91801      133.966 
