! Center RA: 12 21 31.69053,  Dec: +28 13 58.50012 (2000.0)
! Established model.
! Flux (Jy) Radius (mas)  Theta (deg)  Major FWHM (mas)  Axial ratio   Phi (deg) T \
! Freq (Hz)     SpecIndex
  0.110050      0.00000      0.00000 
 0.0209500    0.0282843      135.000 
0.00358832    0.0200000      90.0000 
0.00202246    0.0824621      104.036 
0.00461663     0.101980      101.310 
0.00267840    0.0200000     -90.0000 
0.00142619    0.0565685      135.000 
0.000792244    0.0447214      116.565 
0.000496873    0.0447214      153.435 
0.000719708    0.0200000      180.000 
0.00200460    0.0400000      180.000 
 0.0100730     0.121655      99.4623 
0.00277362    0.0282843     -135.000 
0.00550066    0.0447214     -153.435 
0.00262742     0.141421      98.1301 
0.000331894     0.297321      109.654 
0.00109740     0.323110      111.801 
0.00511868    0.0447214     -116.565 
0.000587690     0.341760      110.556 
0.000966118     0.367696      112.380 
0.00200133     0.393954      113.962 
0.00120993     0.278568      111.038 
0.00108258     0.412311      112.834 
0.00163973     0.120000      90.0000 
0.000394704     0.252982      108.435 
0.000297524     0.417612      106.699 
9.98873e-05     0.420476      115.346 
0.000917378    0.0400000     -90.0000 
0.000529897     0.431741      103.392 
0.000189522     0.429418      117.759 
9.18349e-05     0.439090      120.069 
9.09992e-05     0.427551      100.784 
9.05402e-05     0.100000      90.0000 
0.000810642     0.160000      90.0000 
0.000213869    0.0282843      45.0000 
0.00179831     0.181108      96.3402 
9.28788e-05     0.392938      104.744 
0.000443706     0.412311      104.036 
0.000495235     0.398497      107.526 
8.66652e-05    0.0200000      0.00000 
0.00138403      2.06649      104.574 
8.09107e-05    0.0447214      26.5651 
0.000230085     0.451221      102.804 
0.000225837    0.0721110      33.6901 
0.000148567     0.404969      110.225 
0.000216294     0.386264      111.251 
0.000805209     0.466905      99.8658 
0.000524041    0.0894427      26.5651 
0.00144184     0.180000      90.0000 
0.000649324    0.0600000     -90.0000 
0.000692388      2.08096      103.903 
0.000720365     0.486621      99.4623 
0.000118591    0.0632456     -108.435 
0.000338671     0.107703      21.8014 
0.000487491     0.483735      97.1250 
0.000115773      2.07162      105.110 
0.000539333     0.402492      116.565 
0.00146686    0.0824621     -104.036 
0.000111199      2.05767      105.792 
0.000107702      2.09571      103.241 
0.000106669      2.06320      106.327 
5.29176e-05     0.101980      11.3099 
0.000203673      2.09122      102.707 
0.000606741     0.121655      9.46232 
0.000152813      2.04402      106.484 
0.000655581      2.04978      107.021 
0.000414839     0.411825      119.055 
0.000233721     0.514198      76.5043 
0.000324667      2.11073      102.588 
0.000325282     0.519230      74.3578 
0.000128055      2.10647      102.057 
0.000321325     0.421900      121.430 
0.000433850      1.73666      104.676 
0.000601150    0.0800000     -90.0000 
0.000160050      2.13026      102.470 
0.000640941     0.141421      8.13010 
0.000815400     0.490306      101.768 
0.000370752      1.92603      105.046 
0.000945588     0.101980     -101.310 
7.57344e-05      2.15416      102.875 
0.000423425      2.05572      107.554 
0.000315416     0.432666      123.690 
0.000451284     0.524976      72.2553 
0.000305242      2.17366      102.758 
0.00108120      1.73170      104.036 
0.000907319      2.49479      102.031 
3.51320e-05      2.17816      103.271 
9.75658e-05      2.51436      101.936 
0.000213405     0.444072      125.838 
0.000388324     0.100000     -90.0000 
0.000474297     0.200998      95.7106 
0.000301947     0.721110      93.1798 
0.000279281      2.19317      102.642 
5.94350e-05     0.140000      0.00000 
0.000563263     0.160000      0.00000 
0.000334260     0.742428      94.6355 
0.000160596     0.456070      127.875 
0.000376114     0.504777      56.3099 
5.50823e-05      2.08087      107.913 
0.000339710      1.92094      104.470 
0.000302326      2.08710      108.435 
0.000379321     0.720278      91.5911 
0.000117916      2.23365      106.650 
2.51133e-05      1.80710      95.0796 
0.000231042     0.484149      128.290 
0.000115667      2.20436      101.514 
0.000916521      4.36248      102.443 
0.000250762     0.531413      70.2011 
0.000233817      1.80544      94.4474 
0.000511578     0.514198      103.496 
0.000200214      3.55781      102.005 
0.000469297      6.19035      104.979 
0.000166222      2.22009      100.905 
0.000174530     0.906201      112.036 
0.000104171      2.10238      101.524 
0.000288367      3.91495      108.157 
0.000966710      2.16009      90.5305 
0.000147868      7.74142      108.060 
0.000104363     0.494773      104.036 
0.000239332      1.78404      93.8568 
0.000335075     0.496790      130.101 
9.08834e-05      2.23946      107.140 
0.000249905      2.27561      167.307 
0.000793816      3.12410      87.0643 
0.000282993     0.948472      114.944 
0.000601127      2.23222      167.583 
0.000127272      3.55370      101.689 
0.000546434      2.09351      108.954 
0.000115914      9.28724      107.030 
0.000431494      1.19817      104.500 
0.000999559      5.64624      112.932 
0.000352551      7.73524      107.920 
1.96673e-05      3.72070      104.634 
0.000800539      9.29312      107.148 
0.000196978      2.51857      102.381 
0.000136438      3.71570      104.335 
0.000175981      1.83576      119.358 
0.000120837      2.20045      101.004 
0.000427675      7.94252      116.630 
0.000102800      1.70751      103.548 
0.000276912      7.58696      113.456 
0.000350803      1.78281      93.2155 
0.000330658      3.93395      108.066 
0.000179621      1.85321      119.055 
0.000161511      9.12640      106.290 
1.70909e-05     0.500000      53.1301 
0.000143295      6.21485      105.110 
4.93189e-05     0.957079      116.030 
0.000571156     0.509902      131.820 
6.10687e-05      2.11811      100.886 
3.19499e-05      5.19892      108.853 
5.37307e-05     0.544059      72.8973 
0.000488383      7.95150      116.758 
0.000141218      3.68657      86.5788 
0.000245119     0.992975      117.597 
0.000549701      3.68543      86.8892 
0.000360616      1.70294      102.894 
4.56186e-05      3.42608      99.4073 
0.000107693      2.27059      107.956 
0.000305191      9.10721      106.326 
7.32191e-05      5.19249      108.644 
0.000500325      8.30060      106.950 
0.000241122      8.13902      113.920 
0.000284387      6.74107      91.0200 
7.24294e-05     0.831865      80.3112 
0.000466513      4.93044      100.991 
0.000216260      7.56862      113.517 
0.000191630      6.19555      105.158 
0.000145580      3.42286      99.0771 
1.44193e-05      3.74005      104.556 
8.34844e-05      3.80111      96.0406 
9.58001e-05      1.20333      105.422 
0.000211761      7.17886      85.8461 
0.000377259      3.12519      86.6981 
0.000162452      2.16037      91.0609 
0.000426524      2.21269      167.471 
2.66889e-05      3.86083      98.3400 
0.000109242      2.11443      100.353 
6.54901e-05      1.91604      103.891 
0.000108509      3.73508      104.259 
0.000215157      1.82603      118.811 
0.000196191     0.848528      81.8699 
0.000179179      4.92475      112.190 
7.54602e-05      5.21145      108.574 
0.000116538     0.909065      140.356 
0.000114127      3.26000      90.0000 
0.000323641      3.79905      95.7406 
0.000269499      6.90883      83.1836 
2.62316e-05      5.74338      109.318 
6.46680e-05      7.57902      113.318 
0.000163319      1.85602      127.117 
3.79363e-05      2.49904      102.479 
2.58570e-05      1.19365      98.6732 
1.27439e-05      1.20880      106.336 
9.26462e-05      5.73679      109.130 
0.000118197      1.00240      118.610 
6.16001e-05      1.19080      97.7218 
1.25389e-05      4.06133      107.186 
7.84836e-05     0.180000      0.00000 
0.000234998     0.937230      140.194 
0.000240386      3.92780      107.789 
9.28251e-05      1.19549      107.526 
4.80680e-05      7.57113      113.179 
0.000290977      7.15891      85.8346 
2.38227e-05      1.82800      126.995 
0.000169364      4.06728      107.455 
0.000180337      1.81604      126.491 
4.55274e-05      1.94031      104.323 
6.46297e-05      6.22010      105.287 
0.000194625      6.74145      91.1899 
3.44627e-05      2.50344      102.926 
0.000133043      3.26006      90.3515 
2.34301e-05      1.18828      96.7662 
0.000162975      6.88898      83.1638 
0.000210162      8.00712      117.845 
6.63079e-05      7.56328      113.039 
0.000128757      1.20599      95.7106 
0.000163128      8.33146      107.174 
5.44154e-05      7.57662      113.655 
3.25653e-05      5.20511      108.365 
0.000107315      3.70540      86.9059 
4.32084e-05      1.78180      92.5734 
2.20320e-05      2.49776      114.102 
2.18762e-05     0.203961      168.690 
0.000117995      2.19317      167.358 
6.15986e-05     0.722496      94.7636 
4.26741e-05      9.31813      107.229 
2.14093e-05      2.48395      103.029 
5.18960e-05      9.29903      107.266 
0.000142735      3.12640      86.3322 
4.23093e-05      1.03942      120.018 
3.18964e-05      2.50599      114.520 
8.04627e-05      1.20167      108.435 
3.15625e-05      3.82099      96.0090 
1.05031e-05      5.07488      114.444 
6.02975e-05      6.74999      83.0224 
6.96758e-05      7.55547      112.900 
0.000131896      5.08319      114.649 
1.03334e-05      3.81895      95.7106 
5.55872e-05      6.88723      98.0125 
0.000365924      6.88448      97.8476 
0.000271027      8.68131      105.637 
0.000309974      8.48198      102.529 
0.000381825      7.14927      106.914 
0.000165922      8.65134      105.418 
2.15244e-05      7.99780      117.719 
0.000142482      9.32408      107.347 
4.06193e-05      2.09476      100.452 
6.03782e-05      7.58467      113.794 
7.99125e-05      6.58267      103.530 
7.99857e-05      8.47766      102.397 
5.96187e-05      7.71007      107.824 
4.04086e-05      3.79710      95.4403 
3.99731e-05      6.72336      107.842 
3.93348e-05      2.24544      107.628 
1.97446e-05      8.13093      113.791 
3.87762e-05      3.79526      95.1398 
1.93638e-05      1.69859      102.236 
1.92860e-05      4.95007      100.947 
! Tentative model.
! Flux (Jy) Radius (mas)  Theta (deg)  Major FWHM (mas)  Axial ratio   Phi (deg) T \
! Freq (Hz)     SpecIndex
7.26638e-05      4.36248      102.443 
0.000127141      5.64624      112.932 
3.74847e-05     0.180000      90.0000 
5.63150e-05      3.75542      84.8056 
1.90249e-05      3.12640      86.3322 
3.74692e-05      3.92780      107.789 
5.59714e-05      8.47766      102.397 
3.76355e-05      2.07171      83.9041 
7.47369e-05      9.32408      107.347 
5.60135e-05      5.08319      114.649 
1.90529e-05      2.27561      167.307 
9.46749e-05      7.15891      85.8346 
3.73284e-05     0.509902      131.820 
5.57389e-05      1.82603      118.811 
3.64221e-05      8.13902      113.920 
0.000110085      6.58267      103.530 
1.89639e-05      2.09476      100.452 
3.73132e-05      6.72336      107.842 
1.89230e-05      1.20167      108.435 
1.89313e-05      6.20081      105.336 
5.55950e-05      6.88898      83.1638 
5.52329e-05     0.848528      81.8699 
3.72804e-05      8.65134      105.418 
0.000145286      7.94252      116.630 
1.88767e-05      1.81604      126.491 
1.88964e-05      3.79526      95.1398 
1.88325e-05      7.55547      112.900 
9.09733e-05      4.95007      100.947 
1.88180e-05     0.820000      102.680 
3.71572e-05      2.16037      91.0609 
7.24793e-05      6.88448      97.8476 
0.000127697      6.74999      83.0224 
0.000164781      2.33855      167.152 
7.21809e-05      5.73679      109.130 
3.69180e-05    0.0824621     -104.036 
5.53962e-05      3.10780      85.9407 
3.70719e-05      2.50599      114.520 
5.59081e-05      2.08710      108.435 
3.69631e-05      3.68543      86.8892 
3.71032e-05      7.14927      106.914 
3.70301e-05      8.00712      117.845 
1.86551e-05      4.07333      107.723 
3.68919e-05      1.70294      102.894 
1.86511e-05     0.937230      140.194 
1.85990e-05      1.76045      91.3020 
0.000126383      7.58467      113.794 
0.000148746      6.74145      91.1899 
1.85760e-05      3.41977      98.7462 
1.85690e-05      3.26025      90.7030 
3.68771e-05      2.11073      167.412 
1.85476e-05      1.20599      95.7106 
1.84925e-05      6.60270      100.119 
3.61166e-05     0.203961      168.690 
1.83998e-05      1.20814      109.335 
5.33876e-05      3.81701      95.4119 
5.36958e-05      1.85602      127.117 
1.81892e-05      2.46447      103.134 
1.81599e-05      4.90241      111.541 
0.000655813      10.2400      109.037 
0.000586263      10.3846      105.642 
0.000379641      9.81611      102.592 
0.000174922      10.0079      103.286 
0.000128950      5.09156      114.854 
3.78464e-05      3.26055      91.0544 
1.89348e-05      3.28055      91.0480 
9.07491e-05      7.15749      85.9942 
1.87313e-05      7.59276      113.932 
8.99997e-05      3.61796      84.2894 
5.39986e-05      2.44499      103.241 
7.18079e-05      8.03378      100.471 
5.40123e-05      9.29903      107.266 
3.62715e-05      1.20416      94.7636 
5.35716e-05      1.94031      104.323 
3.56891e-05      6.60624      100.289 
3.58064e-05      3.77534      84.8331 
3.53893e-05     0.181108      96.3402 
3.55882e-05      3.28098      91.3972 
5.30762e-05      2.16083      91.5911 
3.53393e-05      9.11285      106.446 
1.77925e-05      3.73508      104.259 
1.77592e-05      6.88723      98.0125 
3.50639e-05      6.61102      111.286 
1.77318e-05     0.509902      101.310 
3.50474e-05      8.27565      106.858 
3.50064e-05      1.20266      93.8141 
1.75764e-05      4.87360      110.666 
