! Center RA: 12 21 31.69052,  Dec: +28 13 58.50011 (2000.0)
! Established model.
! Flux (Jy) Radius (mas)  Theta (deg)  Major FWHM (mas)  Axial ratio   Phi (deg) T \
! Freq (Hz)     SpecIndex
 0.0564260     0.101837     -78.5245 
0.000871216    0.0286526     -45.0000 
 0.0211968     0.121759     -80.4216 
 0.0113481    0.0202604      0.00000 
0.00332029    0.0397705      0.00000 
 0.0232364    0.0286526      45.0000 
0.00481121     0.120062     -90.0000 
0.00702835     0.180093      90.0000 
 0.0119294     0.140322     -90.0000 
0.00279998     0.159832      90.0000 
 0.0113941     0.161111      97.2243 
0.000533958    0.0446338     -26.9958 
0.00301375     0.181229      96.4188 
0.000486180     0.200353      90.0000 
0.000950542     0.219863      90.0000 
0.00319922    0.0600310      90.0000 
0.00109631     0.240124      90.0000 
0.00151868     0.121759      99.5784 
0.00226690     0.141777      98.2159 
0.000741952     0.259634      90.0000 
0.000518416    0.0633577     -18.6495 
0.000513458     0.280627      94.1402 
0.000610127     0.302778      97.5477 
0.00122994    0.0896014     -26.3505 
0.00203665     0.325253      100.636 
0.000275671    0.0397705      90.0000 
0.000672388     0.107434     -21.7271 
0.00215780     0.349279      103.290 
0.000336657     0.116465     -31.0271 
0.00229834     0.134233     -26.5651 
0.000332995     0.345185      100.015 
0.000213399     0.201375      95.7743 
0.000159982     0.365154      99.4623 
0.000857470     0.164706      103.973 
0.00110943     0.443806      97.7739 
0.000151051     0.184432      102.453 
0.000635917     0.533698      103.001 
0.000664741     0.240977      94.8229 
0.000945158     0.159832     -90.0000 
6.89912e-05     0.260423      94.4620 
0.000130726     0.329594      104.100 
0.00123352     0.558204      104.559 
0.00217195      2.21395      108.435 
0.000774686     0.286260      102.105 
0.000752520     0.266484      103.019 
0.000265350     0.404436      98.5360 
9.35085e-05     0.247514      104.036 
0.000621554     0.424483      98.1301 
0.000319933     0.223431      100.253 
0.000181441     0.204262      101.227 
8.92598e-05     0.126477      108.327 
8.78495e-05     0.107434      111.727 
0.000255700    0.0896014      116.350 
0.000244853     0.243395      99.4042 
0.000404964    0.0446338      116.996 
0.000230495    0.0286526      135.000 
0.000834263     0.582160      105.935 
0.000221709    0.0202604      180.000 
0.000439234     0.388092      101.940 
0.000351889    0.0397705     -90.0000 
0.000691871     0.369026      102.567 
0.000201710    0.0633577     -71.3505 
0.00114848     0.607364      107.248 
0.000858822    0.0828082     -75.8378 
0.000424606     0.632861      108.456 
0.000763852     0.107434     -68.2729 
0.000349090     0.373757      105.487 
5.06202e-05     0.683639      110.563 
0.000245939     0.709549      111.464 
0.000146629     0.407936      101.351 
0.000187768      2.20128      109.102 
0.000500205     0.735213      112.377 
9.36101e-05     0.427819      100.817 
4.67655e-05      2.22044      108.931 
0.000808802     0.126477     -71.6725 
0.000218108      2.20774      109.580 
0.000315061     0.354273      106.362 
8.56028e-05     0.743162      113.822 
8.39880e-05      2.22619      107.781 
0.000415709     0.761740      113.206 
4.14172e-05    0.0802914      90.0000 
0.000275941      2.19560      110.256 
0.000238951     0.220795      95.2649 
0.000451774     0.463888      97.4354 
7.95812e-05      2.24549      107.624 
0.000700587     0.769637      114.541 
0.000219674      2.23966      107.148 
0.000915999     0.145849     -74.1761 
0.000385679    0.0446338      63.0042 
0.000144982      2.20243      110.732 
7.08701e-05      2.78393      109.739 
0.000172496      2.77157      110.260 
0.000732347      2.18419      110.913 
0.000474638     0.461703      94.9415 
3.45832e-05      2.82664      108.560 
0.000189782     0.334882      107.339 
0.000262374     0.788112      113.929 
0.000315254      2.25903      106.996 
0.000101147      2.84586      108.430 
3.30159e-05      2.87151      108.686 
3.28038e-05      2.77865      110.652 
3.26190e-05      2.86509      108.302 
0.000188930      2.75970      110.800 
0.000217944      2.89000      108.562 
0.000287269      2.40931      108.881 
3.13579e-05     0.563425      106.480 
0.000486072     0.958607      113.334 
9.11514e-05    0.0633577      71.3505 
6.16755e-05     0.796545      115.261 
0.000521965      2.76696      111.193 
0.000451673      2.91568      108.813 
0.000424621     0.161111     -82.7757 
0.000350410     0.778270      115.898 
5.71363e-05    0.0828082      75.8378 
0.000322041     0.360505      109.453 
0.000334777     0.460433      92.5220 
0.000257700      2.23377      106.651 
0.000495146     0.164706     -76.0271 
8.03998e-05     0.481892      94.7340 
0.000172396     0.101837      78.5245 
0.000641072      2.19150      111.408 
0.000248319     0.966811      114.437 
0.000143863      2.43507      109.178 
0.000486210      2.77407      111.568 
0.000375371     0.787330      117.224 
4.72233e-05     0.581230      116.532 
0.000513706     0.152624     -23.1616 
0.000135377     0.480675      92.4157 
0.000398439      2.94118      109.045 
0.000224609     0.984607      113.967 
0.000328307      2.22805      106.152 
0.000108303     0.459987      90.0000 
4.42972e-05     0.590559      118.291 
0.000380495      2.44180      109.627 
0.000121975     0.121759      80.4216 
0.000250187      1.02177      66.9561 
0.000264121     0.572799      119.251 
0.000647054     0.993009      115.035 
0.000323938     0.480248      90.0000 
0.000520662      1.89846      110.355 
0.000953433      1.01401      68.0096 
0.000305790     0.796445      118.473 
0.000365332      2.78158      111.956 
0.000707439     0.178866     -26.6725 
3.74700e-05     0.141777      81.7841 
0.000255769      2.94785      109.417 
0.000957012     0.181229     -83.5812 
0.000101883     0.107434      68.2729 
0.000393907      2.21710      111.711 
0.000221267     0.480675      87.5843 
9.28999e-05      2.22270      105.669 
0.000151215     0.582967      120.989 
4.71050e-05     0.585580      97.8809 
0.000108458     0.806301      119.738 
0.000105259     0.460433      87.4780 
0.000311068      3.00464      101.905 
0.000192037     0.126477      71.6725 
4.57280e-05      2.93559      109.922 
1.54252e-05      2.85239      104.628 
0.00132002     0.170734     -20.5855 
8.45613e-05     0.367749      112.431 
0.000182227     0.957327      100.843 
0.000145839      2.78922      112.342 
4.37232e-05     0.184432     -77.5470 
0.000189175      2.84734      104.234 
0.000165877      5.55429      147.794 
2.94302e-05      2.94230      110.279 
0.000228691      1.00142      116.047 
7.06290e-05     0.583147      95.9087 
8.62562e-05      2.98482      101.985 
0.000562237      1.89151      109.779 
2.87001e-05      2.93043      110.788 
7.04093e-05     0.816540      120.973 
0.000146399      1.03223      81.0923 
0.000107642      2.07457      109.130 
4.18901e-05      2.19777      105.303 
0.000109073     0.821137      87.2239 
0.000304852      2.44842      110.057 
0.000108644      2.93768      111.157 
6.64231e-05     0.920997      124.376 
0.000136595      2.19251      104.792 
8.94128e-05      2.79670      112.712 
0.000216222     0.566331      122.005 
0.000229194     0.461703      85.0585 
5.19901e-05     0.581411      93.9223 
0.000169757      2.94478      111.511 
0.000222635     0.932586      125.404 
0.000157696      5.57145      147.905 
9.04528e-05      2.60336      111.633 
0.000503686      1.08805      107.085 
0.000150485     0.600651      91.9330 
1.24737e-05     0.181229      83.5812 
9.29210e-05      2.06826      108.619 
3.52831e-05     0.394056      113.929 
0.000190508     0.822367      85.8138 
0.000173278      1.02938      82.1652 
0.000451968      2.84242      103.838 
6.71887e-05      5.58184      147.735 
0.000256512      1.01048      117.079 
0.000109007      2.80458      113.094 
0.000123906     0.116465      58.9729 
0.000240034     0.201375      84.2257 
0.000198224      2.22439      112.178 
6.54970e-05      2.16375      103.906 
3.29037e-05      2.06348      106.326 
0.000168112      2.95227      111.877 
3.28591e-05     0.600310      90.0000 
0.000257445      3.13342      104.040 
0.000142020     0.624998      82.6190 
1.07446e-05      2.07148      105.119 
6.62775e-05     0.402700      116.565 
0.000190426     0.576909      123.649 
5.09849e-05      2.13927      103.510 
0.000202498     0.959802      125.678 
6.49517e-05      2.05787      105.785 
0.000143094      2.81259      113.474 
0.000311022     0.840624      87.2883 
0.000145850      5.59898      147.846 
1.96066e-05      2.11506      103.124 
4.62010e-05      2.06188      108.085 
0.000128577      1.02682      83.2853 
0.000491590      1.18188      92.9115 
8.37292e-05      2.97108      111.732 
0.000134904      2.13479      103.001 
0.000312682     0.463888      82.5646 
0.000158650      2.61090      112.046 
6.17694e-05      2.85753      103.361 
1.83938e-05      5.58862      148.015 
6.02649e-05     0.134233      63.4349 
0.000129550      5.51192      148.500 
6.83606e-05      2.97864      112.094 
0.000223831      1.88475      109.200 
7.38147e-05      2.25082      112.461 
4.96840e-05      3.14645      112.816 
0.000186756      2.53666      104.143 
0.000128064     0.588377      125.291 
0.000122937     0.412159      119.085 
0.000196584      2.11055      102.588 
0.000125082      2.45544      110.501 
5.50758e-05      2.05568      107.549 
0.000441421      3.15407      113.143 
1.59140e-05     0.944023      126.369 
0.000191088      1.01986      118.092 
0.000114130     0.128090      51.1829 
0.000224661      2.82042      113.837 
0.000210332      1.09418      108.099 
0.000225489     0.627803      80.8529 
5.97058e-05      2.95988      112.241 
0.000170131     0.971758      126.649 
9.31120e-05      2.23211      112.660 
5.18908e-05      1.90585      118.169 
0.000451488      1.91550      118.704 
2.14440e-05      2.04988      107.029 
0.000123936      5.52920      148.610 
7.06812e-06      2.05265      105.261 
8.90870e-05     0.623033      137.587 
0.000154876      2.96732      112.590 
1.34520e-05      2.04741      104.714 
0.000296792      2.10623      102.051 
3.93195e-05     0.201375     -84.2257 
5.07344e-05      2.04404      106.486 
0.000123840      3.13821      104.385 
0.000200639      2.55631      104.032 
0.000239164      2.83782      103.456 
0.000228836      2.25864      112.936 
0.000118021      5.60979      147.670 
6.79767e-05     0.604406      124.223 
0.000262853     0.204262     -78.7726 
7.73478e-05     0.421988      121.401 
0.000105021      1.87842      108.638 
1.75153e-05     0.799236      121.720 
1.80080e-05      1.21183      127.629 
0.000184203      1.20137      92.8642 
7.05091e-05      2.03838      105.940 
0.000202003      1.05225      81.2632 
9.02629e-05      1.22794      127.052 
0.000186819     0.638138      138.814 
4.64628e-05      2.46261      110.942 
0.000202631     0.446997      79.6521 
0.000270903      1.10064      109.102 
4.61796e-05      1.02856      116.565 
5.42581e-06      2.59213      112.214 
0.000161374     0.788112      66.0707 
0.000347635      1.24025      127.799 
1.99838e-05     0.782708      122.471 
8.06850e-05      2.59986      112.627 
0.000258843      2.82867      114.212 
0.000122582      2.03311      105.411 
8.02486e-05      3.16208      113.481 
9.67559e-05     0.593248      122.605 
8.20322e-05     0.394577      120.515 
7.72236e-05      1.87205      108.050 
0.000122561     0.772836      111.233 
9.24413e-05      1.89720      122.515 
0.000172960      2.10224      101.531 
6.92788e-05      1.01966      115.547 
6.24540e-05      3.15308      103.950 
2.91126e-05     0.839927      88.6178 
6.79178e-05      2.08466      118.041 
0.000122080      3.17202      113.005 
0.000109515      1.20255      93.8283 
1.25476e-05     0.793353      123.660 
5.77286e-05      2.94932      112.735 
2.67629e-05     0.956176      127.347 
7.28704e-05      1.86587      107.458 
9.46408e-05      2.24000      113.138 
1.53329e-05      2.02782      104.859 
8.21812e-05      1.90671      99.6514 
1.50282e-05      2.46965      111.365 
2.28915e-05      3.20494      101.520 
3.19607e-05     0.983986      127.595 
3.29329e-05     0.226037     -45.0000 
3.28059e-05     0.450910      77.2126 
1.82310e-05     0.820423      88.5849 
1.79681e-05      3.20905      101.875 
1.42695e-05      1.88078      122.834 
3.62208e-06     0.631341      79.0373 
1.82632e-05      2.17356      102.765 
3.50908e-06      1.88521      107.274 
0.000223398      1.34736      161.827 
0.000130118      1.35358      161.043 
0.000319592      1.34166      153.421 
0.000148888      1.32813      161.555 
4.64673e-05      1.89776      118.997 
2.36148e-05      1.81983      123.343 
3.02000e-05      1.89132      107.860 
2.22347e-05      1.80294      123.697 
2.18628e-05     0.652947      139.942 
7.27153e-06     0.796545      64.7385 
7.23352e-06      5.61551      147.952 
7.17184e-06      1.04946      82.3160 
0.000106210      3.80524      140.112 
0.000235337      3.79029      139.923 
0.000127153      3.81778      139.887 
0.000339383      1.95877      147.929 
3.15721e-05      1.98671      147.745 
0.000263646      2.56153      137.208 
7.12398e-05      2.21277      139.401 
0.000153291      2.42662      98.5360 
0.000106862      1.15984      165.002 
2.41350e-05      2.88385      99.9795 
8.05456e-05      2.19743      139.057 
2.94213e-05     0.968601      128.299 
2.96888e-05      2.88743      100.375 
9.21149e-05      3.31697      110.846 
2.82082e-05      5.50136      148.680 
6.28623e-05      1.78984      129.556 
2.07768e-05      2.45310      114.064 
3.40946e-05      3.21312      102.215 
2.73963e-05      2.90662      100.306 
2.72481e-05     0.331336      154.944 
2.02669e-05      2.11209      118.268 
1.35141e-05      2.83704      114.586 
6.86232e-06      2.15414      138.771 
2.02546e-05      1.88427      99.1660 
6.77465e-06      1.33443      160.760 
6.74922e-06      2.94183      112.385 
1.33422e-05     0.805400      63.4349 
1.33211e-05      2.42369      98.0624 
6.69373e-06      1.83063      123.853 
0.000537833      9.71803     -131.663 
-0.000466521      8.82253     -139.415 
-0.000466209      9.80649     -6.67475 
0.000510786      10.9530     -53.9882 
0.000243003      5.31403      160.199 
-0.000123383      4.92897      99.5785 
0.000195157      7.92049     -12.2468 
-0.000178014      4.90900      99.6178 
0.000294854      7.80403     -148.306 
0.000252222      6.11023      115.394 
-0.000212783      9.77457     -15.9110 
-0.000351826      6.59218     -104.584 
0.000351988      8.57006      101.439 
0.000349853      8.84745     -146.527 
-4.00657e-05      4.93226      99.8020 
0.000380015      12.0479     -38.2596 
0.000346100      13.7510     -41.9919 
-0.000346350      8.19927      151.122 
-0.000450835      6.05766      16.1024 
0.000278441      6.31942      124.947 
-0.000242702      1.27323     -46.2656 
0.000272328      7.74647     -175.260 
0.000211279      4.90757     -44.8327 
-0.000180753      9.79406     -15.8785 
-0.000334892      5.61028     -109.145 
-0.000232641      8.50437     -32.9062 
-0.000364164      10.0821     -132.107 
0.000139583      10.3908     -76.4174 
-0.000133370      8.92391     -108.558 
-0.000259023      9.85982     -61.9293 
-6.94040e-05      8.76616     -4.44798 
0.000102208      10.9321     -117.691 
-0.000163386      6.18050     -153.687 
0.000226567      9.15120     -112.079 
0.000102564      5.54554     -43.5416 
-3.47793e-05      11.1763     -143.296 
-0.000127426      12.7861     -50.4579 
0.000287160      9.73151     -131.752 
-0.000224045      6.88520     -87.8389 
0.000129732      4.45582      49.7336 
-0.000160692      7.84444     -153.827 
9.69507e-05      7.91072      32.9243 
0.000128012      10.0319     -83.1307 
-0.000130645      10.2778      106.391 
0.000159990      14.0299     -45.5764 
0.000251654      10.8724     -143.679 
0.000189076      6.31383      109.813 
-3.35210e-05      9.94101     -114.863 
-9.49984e-05      11.1884     -143.212 
0.000187672      11.0772      56.3401 
3.30517e-05      13.4420      48.1951 
-9.58673e-05      8.91456     -59.2339 
9.40245e-05      9.15684      176.495 
6.28925e-05      5.77697     -9.36689 
0.000137770      5.56025     -43.3978 
0.000123884      13.1612     -40.6856 
-6.26994e-05      11.5944      58.2572 
-9.23416e-05      6.90678     -82.0125 
6.20163e-05      8.17123     -161.740 
6.17601e-05      10.4192     -76.2300 
-9.11196e-05      5.51204     -118.145 
6.16622e-05      11.8869     -147.993 
-6.11169e-05      7.84406      55.7049 
6.12197e-05      6.76690      177.458 
-6.11609e-05      10.4489      25.3873 
6.05937e-05      8.77376     -132.966 
-0.000194517      9.37992     -179.757 
6.05934e-05      7.82064     -148.381 
-9.00633e-05      12.5736      45.7085 
6.00102e-05      8.51879     -144.559 
-6.05064e-05      9.92111      90.8104 
-6.00588e-05      10.2833      106.495 
3.02831e-05      7.13184      106.454 
5.92770e-05      13.8875      134.884 
-3.00586e-05      9.01753      93.5591 
2.98601e-05      1.21679     -64.6992 
2.96778e-05      12.6914     -133.275 
-2.96930e-05      8.95234     -59.0815 
2.95480e-05      14.0435     -45.5196 
-2.94659e-05      9.80171     -1.05279 
2.94663e-05      9.93110     -72.6576 
0.000102827      8.85432      60.9478 
-2.93070e-05      8.54074      179.330 
2.90264e-05      8.96903      127.662 
-0.000183049      9.16076     -179.249 
-0.000165668      6.64367      141.231 
-6.55220e-05      9.14050     -179.247 
0.000198482      9.28001     -128.526 
6.64600e-05      9.22778     -16.2347 
-9.09525e-05      2.46746      70.1047 
5.95266e-05      7.13254     -12.6341 
-0.000259468      2.04352     -139.766 
6.54348e-05      9.19744     -136.937 
-0.000102794      12.9972     -44.4386 
8.41403e-05      8.84134     -46.3755 
-0.000138831      11.6756     -128.322 
4.27409e-05      7.15231     -12.5986 
6.84838e-05      5.41181      37.0367 
0.000130690      13.2983      139.820 
-0.000116145      10.3751      118.938 
-9.11080e-05      8.85836      38.2164 
-2.13163e-05      8.83092      64.9440 
0.000110406      5.42800      36.9079 
-3.90551e-05      9.15329      165.966 
-3.98056e-05      1.59247      78.4200 
-2.08227e-05      2.44842      69.9434 
-3.93348e-05      9.34967      27.9348 
-3.99240e-05      8.84927      64.9995 
-0.000117945      5.68010     -101.785 
0.000247030      9.68426      20.6818 
-0.000126015      8.98817     -157.773 
6.52017e-05      7.87674      33.0845 
6.98189e-05      9.90716      80.1217 
5.67792e-05      9.18319     -136.854 
2.00313e-05      8.52081     -175.960 
-0.000269939      2.46089      70.5319 
-1.99414e-05      12.7855     -44.2391 
-0.000138244      9.39466      30.4403 
5.41855e-05      8.96788     -150.174 
-0.000168948      8.11081     -65.8394 
-8.57887e-05      9.92175      91.0401 
-1.94966e-05      1.98671     -57.7446 
8.17424e-05      9.57655     -147.538 
-5.21639e-05      9.16105     -179.122 
-0.000116119      13.2180     -138.374 
-8.78531e-05      4.03284     -34.0863 
8.03336e-05      4.75301     -83.2363 
-1.88601e-05      6.65948      141.340 
-3.67151e-05      8.84073      65.1185 
-0.000270922      7.47752     -26.3568 
8.73004e-05      10.0169     -157.581 
1.86010e-05      5.07263     -154.549 
-6.86670e-05      2.06896     -150.469 
-6.83978e-05      5.94061      126.095 
1.82959e-05      8.85534     -46.2807 
-1.80787e-05      10.0783      121.863 
-6.69955e-05      11.4645     -147.974 
5.06603e-05      9.03891     -41.5909 
-1.79686e-05      8.07722     -64.0039 
-0.000136684      6.95822      172.571 
3.48043e-05      2.85980     -106.666 
0.000347396      10.3663      104.410 
-6.89414e-05      9.85233      145.504 
-1.76275e-05      10.3928      118.884 
-0.000117958      8.55518      138.221 
-8.04334e-05      11.2163     -44.0621 
-9.25627e-05      8.09543     -64.0667 
1.73352e-05      12.5385      40.5998 
-3.36775e-05      9.24754      31.5594 
-0.000159909      9.81259      127.546 
1.72554e-05      5.05434     -154.451 
4.76619e-05      6.81174     -71.5092 
-0.000204906      13.0114     -44.5023 
4.81833e-05      4.38049      37.3921 
-0.000135003      6.57541      167.531 
-0.000288448      10.3653      118.840 
8.77765e-05      12.4895      41.0389 
1.66285e-05      9.19706     -136.762 
-0.000145481      9.81009     -39.9576 
9.19591e-05      8.26112     -43.8223 
7.77678e-05      6.48247      29.1731 
-1.64369e-05      10.3405      171.995 
0.000101876      12.7466     -133.538 
0.000171936      9.84098      56.8576 
-8.78476e-05      7.90726     -26.1128 
-1.62675e-05      1.96961     -57.4300 
-1.62620e-05      10.0618      121.922 
-0.000162598      9.86904      145.570 
-3.11810e-05      8.82235      65.0632 
3.10167e-05      2.85405     -106.276 
1.60915e-05      9.18231     -136.676 
-1.58507e-05      11.0778     -124.407 
-1.58501e-05      4.64849      142.338 
-9.55962e-05      9.23092      31.6228 
-3.10168e-05      13.6394      136.781 
-2.91661e-05      8.11912     -65.7090 
4.30988e-05      5.92955     -56.4165 
-1.55769e-05      8.09441      140.213 
8.28178e-05      11.1851     -130.069 
0.000192970      10.0092     -157.688 
-7.79593e-05      4.74921      26.7837 
1.53302e-05      8.79719     -71.4430 
-1.53233e-05      8.99586     -157.654 
2.98849e-05      9.70252      20.6411 
8.07570e-05      9.29217     -128.620 
4.23645e-05      7.91198     -106.145 
7.33823e-05      10.5194      109.433 
-8.11926e-05      4.66455      142.490 
-5.58785e-05      8.24534     -58.8923 
-7.94712e-05      11.0847     -124.637 
-0.000162376      6.73981      175.575 
1.50416e-05      5.91331     -56.3119 
-1.48786e-05      4.06055     -34.1541 
-5.38217e-05      7.04045      11.4716 
-5.07594e-05      6.94036     -89.8327 
-5.55271e-05      9.36052     -179.633 
-7.76989e-05      8.58918     -58.7152 
1.47644e-05      8.27909     -17.8667 
-5.47047e-05      9.00624     -157.820 
2.85038e-05      9.19571     -136.587 
-1.47131e-05      4.73180      26.8901 
-1.45994e-05      7.95276     -64.5278 
0.000166233      8.24582      82.7540 
-1.45126e-05      9.44347     -4.00971 
-5.43024e-05      10.4221      148.020 
0.000153290      10.3852      104.384 
1.44080e-05      11.6252     -126.041 
-0.000192924      9.41213      30.3778 
-4.16078e-05      9.98629     -114.870 
-2.76786e-05      11.0732     -124.551 
5.26431e-05      9.02377     -41.6763 
6.57285e-05      11.0734     -116.841 
1.42911e-05      4.99182     -51.0160 
-5.37060e-05      13.6542      136.839 
-2.70974e-05      7.48758      177.398 
-1.42640e-05      9.34026     -179.632 
4.02164e-05      10.8720     -146.252 
-0.000102175      10.0622      63.6872 
1.41601e-05      9.57961      15.7487 
0.000214209      8.85692      15.8567 
0.000186452      11.6137     -125.963 
2.68924e-05      8.30460     -17.9569 
8.99701e-05      8.52585      123.615 
1.38333e-05      12.5042      40.9802 
-1.38329e-05      6.57177      70.6278 
-1.38156e-05      1.57687      77.5510 
-1.37883e-05      12.7809     -50.2069 
-0.000101197      4.21077      124.744 
0.000189357      5.92454     -12.6721 
-7.07197e-05      8.87429      38.1355 
-3.96414e-05      12.7523     -50.2186 
1.35453e-05      9.74574      46.0794 
3.75788e-05      8.23248     -43.8182 
-0.000150944      13.2309     -138.311 
-2.65875e-05      9.56751      101.945 
3.87889e-05      10.2977      166.180 
0.000103391      9.56011      15.7817 
-5.93531e-05      11.4013     -50.8390 
2.61587e-05      10.5066     -75.6720 
-1.33621e-05      12.0207      55.7792 
0.000267146      12.4870      41.1675 
-2.56021e-05      11.4542     -148.057 
1.32609e-05      6.47471      29.4171 
9.47801e-05      5.00412     -50.8424 
1.32820e-05      11.8941      135.204 
-8.45758e-05      10.4146      141.941 
-8.16425e-05      9.01391     -157.701 
1.30571e-05      4.01369     -74.0929 
0.000198796      8.24652     -43.9198 
-0.000269962      12.7192      51.8306 
4.74633e-05      9.75928      45.9969 
-0.000124887      9.28521     -140.065 
-3.70336e-05      4.56489     -166.569 
-8.00780e-05      13.6583      137.316 
-0.000248805      12.0093      55.8591 
-6.64213e-05      8.19849     -70.3278 
0.000112919      11.9217      135.204 
-0.000146923      9.54769      101.971 
1.26680e-05      5.74699     -20.5788 
-0.000221373      12.7653     -50.1487 
2.45862e-05      8.41752     -110.590 
-5.86343e-05      10.8590     -151.026 
-3.58395e-05      9.33178      27.9931 
1.25781e-05      9.99586     -163.016 
5.85454e-05      10.5016     -75.7791 
0.000290917      11.9159     -147.054 
0.000252431      9.54688      15.9305 
1.23337e-05      12.0929      44.2634 
-3.60431e-05      8.97059     -34.6445 
-1.22525e-05      10.5472      25.4949 
1.22613e-05      4.87878      69.8565 
-0.000101898      11.7215      148.180 
1.22242e-05      7.90637     -106.004 
-2.41593e-05      9.77180     -173.062 
2.40255e-05      10.0152     -163.050 
-3.49660e-05      8.20798     -65.6844 
-0.000310800      10.9303      153.247 
-7.57072e-05      5.06128      178.641 
2.30219e-05      5.94079     -56.2537 
-1.20020e-05      10.2645     -159.587 
-0.000129282      1.49404     -153.770 
8.27348e-05      11.5973     -126.022 
-4.54081e-05      12.9689     -45.4384 
3.49958e-05      10.8056     -44.2488 
-1.19027e-05      11.0056     -124.036 
5.10435e-05      12.7600     -133.601 
3.44728e-05      10.8963     -139.617 
-9.67106e-05      12.5933     -131.717 
1.17735e-05      5.70356     -57.3114 
1.17675e-05      11.1702     -130.133 
-1.17373e-05      10.4939      44.6900 
8.29563e-05      9.85166      56.7626 
-2.25984e-05      9.79515     -40.0309 
0.000140080      9.22080     -97.6039 
5.60345e-05      9.12203      157.709 
-0.000323104      9.79117     -173.076 
3.20291e-05      6.59938     -171.111 
2.20723e-05      7.26851      30.2313 
1.16001e-05      8.79100     -71.5635 
-2.21754e-05      7.55018      62.5512 
0.000157196      12.1099      51.3696 
6.22054e-05      10.3785     -18.5411 
7.43113e-05      6.17409     -146.360 
-4.41623e-05      9.40165     -3.90381 
0.000117360      11.0646     -116.751 
-0.000224136      11.7387      148.232 
0.000111852      12.8578     -37.7955 
-5.48213e-05      8.99878     -34.6773 
-1.13493e-05      4.18300      124.682 
1.13262e-05      8.29838     -17.8238 
1.13245e-05      5.69265     -57.4830 
-2.18005e-05      4.30046     -161.568 
2.20285e-05      1.13743      34.2457 
2.09943e-05      8.44336     -110.666 
1.12278e-05      5.02901      78.0647 
8.98032e-05      12.5533      40.5419 
-3.11755e-05      7.88015     -26.0453 
-2.16235e-05      10.5220      44.6937 
1.11463e-05      10.0096     -163.157 
2.17820e-05      8.95356     -20.2559 
1.11071e-05      8.83607     -42.0639 
-9.01442e-05      4.19968      124.525 
7.27717e-05      10.8196     -44.1767 
0.000322175      9.59803     -97.3034 
7.19207e-05      7.85989      15.3458 
-1.10565e-05      11.1088     -57.7989 
1.10247e-05      7.23711      152.516 
-1.09878e-05      6.80115      168.293 
3.17420e-05      3.69767     -66.0670 
0.000140330      12.6449      42.1161 
3.05117e-05      8.87091      15.6951 
7.97780e-05      10.8809     -139.548 
-2.14283e-05      7.13820      62.6457 
1.09044e-05      8.81640     -71.4849 
2.09086e-05      10.0282     -163.189 
-2.14598e-05      9.18450     -162.512 
-2.97837e-05      6.93938     -105.716 
-0.000187294      9.12099     -179.246 
-9.79302e-05      10.0856     -10.3944 
-1.07628e-05      12.2791     -129.316 
-5.14608e-05      8.36998     -82.5876 
-3.14030e-05      11.0984     -57.8842 
0.000220415      10.0279     -157.732 
1.06722e-05      12.5568      51.0129 
5.08155e-05      8.83661      60.8840 
2.09116e-05      13.4172      48.4439 
1.05885e-05      10.7940     -41.6944 
-2.08001e-05      12.6606      143.673 
7.41804e-05      7.21915      152.441 
-3.95833e-05      11.0285     -56.9144 
2.03659e-05      4.35266      162.896 
-3.05662e-05      10.9157      68.8400 
-0.000142875      12.9831     -45.3747 
2.04650e-05      6.93067     -113.826 
4.03546e-05      9.14777      157.638 
4.90929e-05      5.01694     -50.6630 
-0.000171946      13.0251     -44.5635 
-3.84306e-05      6.76160      175.417 
1.04542e-05      10.8888     -146.311 
0.000179380      13.8875     -135.116 
-3.96901e-05      6.94490     -105.877 
-2.45564e-05      10.4021      142.029 
-5.88562e-05      9.20383     -162.550 
-3.00685e-05      9.82495      127.640 
-6.57983e-05      12.2920     -129.389 
-0.000309924      13.0907      38.6726 
5.83153e-05      10.4968     -75.8823 
-2.91537e-05      6.45598      23.9463 
-2.03664e-05      11.9153     -138.470 
-1.02346e-05      12.0705     -33.3749 
-3.00018e-05      8.98726     -34.5711 
-1.02238e-05      4.76758      43.4694 
-1.01873e-05      10.5205      25.4465 
2.86711e-05      8.81022     -71.6052 
0.000220466      13.4318      48.4991 
1.98253e-05      5.68178     -57.6553 
-1.89564e-05      6.94033     -90.0000 
1.01099e-05      6.15842      85.5274 
1.98946e-05      13.1459     -40.7432 
0.000102821      14.3402     -45.2247 
2.88376e-05      10.7789     -41.7660 
9.43230e-05      10.9387      63.3875 
-0.000168069      11.9007     -138.407 
-8.53507e-05      7.74730     -8.61199 
-6.72215e-05      12.6323      143.692 
-5.68330e-05      11.4085     -49.6926 
-8.23352e-05      11.1368     -57.7663 
9.90235e-06      10.5882     -16.3453 
7.54610e-05      9.69633      146.442 
-4.58905e-05      8.56882     -153.971 
2.88003e-05      6.15997      85.3465 
-0.000119269      13.4550      41.8668 
0.000100912      10.1634     -97.3470 
-1.93980e-05      9.27026     -139.988 
-1.91291e-05      8.91481     -141.744 
4.66359e-05      8.41719     -93.6802 
1.92853e-05      8.71558      108.602 
0.000111328      12.4071      138.138 
-9.73905e-06      8.23479     -65.6139 
-0.000100860      8.79942      86.2204 
-6.57305e-05      13.5508     -46.0769 
-0.000227606      13.0396     -44.5011 
4.69231e-05      10.0030      88.5127 
-9.69026e-06      9.71974     -155.439 
9.71917e-06      8.21787     -43.9160 
-9.65670e-06      9.38083     -3.78847 
-5.36082e-05      8.37261     -82.4501 
-4.60511e-05      8.01316     -71.5192 
2.81846e-05      4.78861      19.2697 
-9.59899e-06      12.7574     -44.2398 
-9.56825e-06      13.6451      137.376 
0.000162842      13.0811      141.517 
-9.59351e-06      6.77796      168.428 
-9.56524e-06      6.46291     -138.766 
9.55996e-06      10.5687     -16.3762 
-8.17709e-05      13.2444     -138.245 
-4.56678e-05      12.5798     -131.649 
-9.14796e-05      12.7850     -42.2739 
9.51622e-06      12.7742     -133.541 
1.87528e-05      10.8341     -44.1020 
0.000189424      12.4620      136.237 
-9.47129e-06      12.0536     -33.4279 
-7.28427e-05      10.7964     -150.110 
2.78867e-05      8.71514      48.6303 
9.45912e-06      7.19092     -162.021 
-2.24792e-05      9.01483     -34.6068 
5.91318e-05      2.79154      28.2183 
0.000277849      12.6599      42.0546 
2.78201e-05      10.8883      127.310 
9.00838e-05      6.95213     -142.834 
9.36754e-06      5.27540     -94.3481 
3.66270e-05      7.20119      152.367 
4.50093e-05      7.85456      15.2033 
-9.35451e-06      5.66445     -102.027 
-9.35737e-06      1.20797     -109.335 
-6.27752e-05      10.2772      117.212 
1.83115e-05      10.4927     -14.4616 
-0.000321876      10.9478      153.293 
-5.40511e-05      8.55562      73.4278 
-1.83820e-05      12.0043      146.760 
-0.000106967      12.7710     -44.3025 
2.93668e-05      8.57943      64.7506 
-1.82769e-05      13.4097      46.2085 
9.20143e-06      5.67137     -57.8218 
-4.49627e-05      11.0391     -56.8295 
0.000240538      13.9162     -135.116 
9.20445e-06      8.69339     -24.0318 
2.68955e-05      8.88309      130.251 
1.82184e-05      8.81776      128.924 
9.13956e-06      11.9360      135.135 
-0.000107174      12.7312      51.7616 
-4.76022e-05      9.70132     -155.390 
4.47721e-05      7.16635     -162.121 
-1.81817e-05      13.7390      46.8281 
1.81972e-05      10.1660     -97.4602 
-3.60345e-05      12.6770      143.727 
2.67670e-05      10.3600     -18.5754 
-9.09906e-06      8.24318     -65.4857 
3.27490e-05      10.8346     -43.9505 
0.000107271      10.2845     -40.5052 
-3.60276e-05      13.7242      46.7702 
3.56970e-05      8.71985     -24.0947 
4.46186e-05      10.5116      71.0115 
2.69937e-05      9.82117      153.905 
-8.90006e-05      11.8147     -136.850 
7.12412e-05      9.70027      89.8803 
2.69179e-05      14.0722     -45.5185 
-9.79405e-05      9.55175      102.085 
8.92235e-05      8.94307      78.3874 
-9.04644e-06      13.5368     -46.1387 
-9.02681e-06      9.30083     -36.2551 
-6.27354e-05      12.9437     -128.853 
-9.01030e-06      9.35412      108.319 
9.01316e-06      8.41591     -93.5426 
-0.000115568      11.3747     -59.6949 
-0.000173006      4.18823      124.297 
4.45353e-05      10.8765      127.228 
3.57123e-05      12.8298     -37.7821 
-8.99400e-06      9.33272      12.2505 
1.78506e-05      9.22340     -97.7240 
-8.00302e-05      13.5509     -46.1959 
-3.57695e-05      13.9536     -137.092 
7.10634e-05      8.83050      129.026 
1.78375e-05      9.41225      72.5661 
2.67297e-05      9.67946      146.375 
-3.56450e-05      10.5608      165.411 
0.000106545      9.81983     -83.6869 
6.21628e-05      11.1452     -156.746 
1.78340e-05      8.89619      130.351 
-0.000204042      13.7381      46.7086 
9.75981e-05      11.8995     -147.003 
4.43296e-05      7.53790     -104.440 
-7.98641e-05      11.0479     -149.303 
5.32488e-05      10.9296      63.4824 
-5.32067e-05      13.5203      45.4812 
-1.77401e-05      8.93013     -141.821 
-0.000132623      12.7995     -42.2152 
-2.66060e-05      9.80210     -1.17120 
7.99693e-05      11.0555     -116.657 
6.20171e-05      12.5023      41.1063 
5.24333e-05      6.96439     -142.702 
-0.000248488      13.0749      38.7281 
5.32390e-05      10.0036      88.3967 
-7.98431e-05      9.34751      12.1038 
-7.08110e-05      11.8856     -138.342 
5.31149e-05      12.1221      51.2975 
9.75887e-05      10.0467     -157.776 
-7.09176e-05      12.5728      45.5803 
-2.65724e-05      7.63976     -8.27893 
1.77400e-05      7.86613     -85.3326 
-0.000133068      10.8140     -23.1991 
-8.87813e-06      11.3800     -49.7044 
-8.89400e-06      8.03880     -71.4281 
-2.65591e-05      12.7938     -50.1372 
-5.30843e-05      12.9310     -128.783 
8.85286e-06      4.80703      19.1930 
-2.65450e-05      12.4163      145.235 
1.77051e-05      9.11314      127.600 
-0.000106390      13.9679     -137.147 
-5.31498e-05      12.6927      143.779 
8.83968e-06      9.84829      153.851 
-3.54174e-05      9.87113     -5.81591 
-2.65384e-05      8.92736     -141.642 
-1.76434e-05      8.37530     -82.3127 
-8.86388e-05      9.80887     -173.208 
4.43953e-05      12.3790      138.143 
8.83595e-06      10.4017     -130.242 
3.20104e-05      3.52232      46.1480 
9.76583e-05      10.2977     -40.5909 
-4.43357e-05      10.5797      165.437 
-1.76780e-05      13.6192      45.2969 
-8.83036e-06      11.0115     -56.8568 
5.33390e-05      7.88799     -85.1979 
-7.09617e-05      6.62189     -104.872 
3.54720e-05      12.5687      40.4818 
-1.76610e-05      9.80252     -1.28521 
1.77214e-05      8.21165     -111.879 
6.21006e-05      12.7878     -126.799 
-2.65155e-05      10.8413     -150.974 
-9.77818e-05      12.4330      145.288 
-1.76728e-05      11.4916      128.925 
-4.43389e-05      12.8064     -50.0702 
-2.99112e-05      11.0832     -49.7564 
-2.65390e-05      13.1928     -138.625 
8.83664e-06      10.4671     -146.613 
8.82155e-06      9.42554      72.7205 
-5.31875e-05      13.6049      45.3575 
2.65538e-05      10.0509      107.604 
-1.77089e-05      12.3044     -129.459 
2.65514e-05      12.1162     -53.1876 
-8.81783e-06      12.5647     -131.710 
-2.66119e-05      12.2096      55.8157 
-2.66372e-05      9.78185     -1.17362 
8.85279e-06      8.60202      101.126 
-8.82123e-06      13.6313      137.438 
3.55084e-05      8.38234      111.853 
1.77087e-05      13.3132      139.874 
-4.43173e-05      11.8721     -138.415 
-2.66784e-05      11.0004     -56.9452 
4.45899e-05      13.7645     -42.0545 
-9.41112e-05      12.8145     -42.1543 
-8.83223e-06      12.7783     -50.0790 
-8.83396e-06      12.7317      38.8154 
8.82413e-06      5.90478     -12.7152 
2.66857e-05      10.0740     -157.100 
7.03491e-05      4.80041      18.9646 
-1.77508e-05      11.1260     -57.8545 
-8.85390e-06      11.2176      145.459 
-1.77386e-05      9.83176      98.6564 
3.56597e-05      11.4575     -153.344 
8.85251e-06      10.4680     -14.3819 
8.87040e-06      13.9734     -134.306 
-8.89587e-06      7.66778      78.7187 
8.85391e-06      8.10564     -13.5564 
-1.78539e-05      7.61972     -8.30087 
1.78578e-05      12.5004      41.2374 
4.46242e-05      13.9879     -134.248 
-8.91721e-06      8.39800     -82.1993 
1.78653e-05      8.60439      122.951 
1.78769e-05      10.3408     -18.6111 
-1.77962e-05      9.03762      10.7138 
-1.78732e-05      9.83483      98.7731 
1.78977e-05      11.7734      144.123 
-8.91828e-06      8.56120      73.3027 
-8.92545e-06      13.1946     -138.749 
-2.93982e-05      10.3511      9.11817 
8.90029e-06      11.8545      33.0211 
-8.90810e-06      7.64865      78.6901 
-8.93649e-06      3.45957      8.64506 
-8.94069e-06      13.6511     -137.970 
8.94157e-06      11.1372     -156.841 
-8.96260e-06      12.0046      55.7268 
8.95156e-06      12.6760      41.8662 
8.97079e-06      8.60595      101.258 
-0.000109559      11.5109      42.2548 
-0.000113469      9.80370     -97.5031 
0.000190773      13.7900      45.7650 
1.94738e-05      7.87411      15.1646 
-5.84918e-05      13.3420      133.238 
-6.74544e-05      12.5782     -131.779 
-2.72819e-05      11.1081      37.0983 
0.000176943      9.75917     -71.9719 
-0.000197053      12.4351     -139.959 
-7.58222e-05      13.4215     -134.579 
-5.15290e-05      12.2235     -43.4080 
3.42812e-05      10.5261      109.537 
1.77455e-05      12.7969     -137.533 
-0.000254508      13.4420      41.8049 
5.06063e-05      10.8200     -44.0250 
-2.52611e-05      11.4520     -131.177 
2.51984e-05      8.57919      64.4503 
-3.22333e-05      4.07536      133.015 
-4.21380e-05      10.3027      106.463 
-2.45877e-05      7.32197      61.2654 
1.69622e-05      6.49815      20.1634 
5.26467e-05      13.8995      47.3322 
-7.06742e-05      8.60586     -58.7826 
5.48418e-05      12.5548      144.335 
-3.20524e-05      10.6530      69.2186 
-1.63560e-05      13.6594      137.431 
-4.65460e-05      4.08869      133.215 
-1.66398e-05      6.96010     -89.5058 
9.12859e-05      5.27390     -94.1286 
-9.25693e-05      9.00334     -34.5007 
-1.65852e-05      13.4269      41.8625 
6.15730e-05      10.8626     -160.198 
6.80576e-05      10.2585      161.707 
2.20177e-05      5.90051     -12.5304 
-3.21825e-05      10.1793      83.7960 
-2.91115e-05      13.8949     -46.8667 
0.000130600      10.1071      94.1981 
9.36795e-05      11.6088     -126.100 
-2.34664e-05      13.3286      133.177 
-5.01242e-05      11.0925      37.1590 
5.67229e-05      11.2885     -53.7189 
-3.14642e-05      9.06991      92.6555 
-4.68457e-05      12.1953     -43.4069 
-1.58292e-05      6.95995     -89.6726 
8.02737e-06      5.50398     -87.9139 
-2.33834e-05      8.31466      56.0819 
-2.30822e-05      5.08206      178.418 
9.31559e-05      8.92851     -20.1818 
7.96993e-06      10.2329      161.779 
-0.000181611      9.73581      36.5634 
-8.89611e-05      10.2023     -104.883 
8.44693e-05      6.57637     -171.251 
-1.55681e-05      1.22711     -109.022 
2.29962e-05      6.14600     -146.413 
-9.25893e-05      4.83720     -33.3622 
-5.69823e-05      11.9089     -44.0478 
2.23545e-05      5.88074     -12.5732 
-0.000299898      10.2972      106.359 
-5.03141e-05      10.4894     -56.0382 
-7.81997e-06      13.4399      41.9244 
2.17993e-05      8.12478     -132.608 
7.74687e-06      5.52216     -88.3414 
4.38640e-05      9.97391     -108.470 
2.27505e-05      12.0567     -38.4677 
-9.91660e-05      8.87628     -151.760 
-0.000220509      10.1772      83.9094 
7.70536e-06      7.57434      149.711 
-0.000261296      13.4072     -134.517 
7.65488e-06     0.596781     -13.5994 
-7.66272e-06      6.64838      168.727 
-0.000111759      9.47504     -157.279 
-5.60765e-05      10.1953     -15.5880 
7.59464e-06      9.72741     -72.1619 
1.46939e-05      10.9780      62.0809 
3.61799e-05      12.7570      45.6363 
7.14393e-05      5.19055      166.183 
-2.21250e-05      9.19971     -144.823 
-5.12273e-05      9.07084      92.7786 
2.20738e-05      8.57047      64.5725 
-0.000118967      11.0341     -29.5409 
-7.52696e-05      12.5593     -141.141 
4.88470e-05      4.72628      16.9763 
0.000104288      11.9525      57.8505 
-0.000144201      12.2101     -43.3415 
-7.65559e-05      9.28282     -139.896 
-7.62790e-05      9.64843      41.5540 
-7.46156e-06      8.84616      159.762 
-7.45310e-06      9.94126      91.0380 
-1.46643e-05      5.89757      7.99401 
7.61164e-05      13.7655     -131.938 
7.40832e-06      12.4878      44.9343 
-6.21168e-05      11.1777     -140.300 
2.18886e-05      10.3026      166.071 
-3.55993e-05      6.41758      163.710 
-7.33885e-06      7.13698     -29.3653 
-3.52744e-05      8.82966     -73.8245 
-6.20512e-05      6.18178      133.820 
7.33489e-06      12.0725     -38.4079 
8.76097e-05      10.8080     -59.1631 
1.43793e-05      4.75796     -82.7517 
-3.42838e-05      12.1717     -147.275 
4.82518e-05      9.46776     -71.5263 
7.48633e-05      9.57413     -164.368 
2.15071e-05      10.4919     -75.9896 
2.81137e-05      10.7253     -147.645 
-7.24416e-06      12.2235     -46.5920 
7.47133e-05      13.2209      131.380 
-3.40863e-05      14.1304     -133.911 
-6.80489e-05      12.0201      50.5374 
2.76750e-05      7.64054     -110.856 
8.86451e-05      10.8435     -160.162 
-7.21769e-06      13.8940     -46.7486 
2.11441e-05      5.57499     -43.2547 
-2.09734e-05      8.82716      159.716 
-7.19171e-06      1.53834     -153.772 
-0.000101859      6.57381      129.939 
-7.18280e-06      11.4654     -131.253 
2.11054e-05      12.5021      45.0000 
0.000166562      10.3223      166.098 
-1.39410e-05      10.1889     -12.6995 
-3.41192e-05      12.2087     -46.5266 
9.96606e-05      12.0441     -38.3922 
-1.40486e-05      12.2001     -51.5906 
5.42934e-05      12.5265      144.356 
-2.76154e-05      8.59538     -58.8981 
-4.13507e-05      9.07184      92.9064 
7.05100e-06      2.77436      28.4089 
1.38931e-05      8.58810      64.6283 
2.70313e-05      6.03792      51.7272 
3.50327e-05      9.18795      174.126 
-7.02020e-06      7.70247      38.3582 
2.75247e-05      8.98102     -45.6330 
-2.05434e-05      9.80627     -97.6161 
0.000133005      10.4680     -76.0713 
-1.38934e-05      10.1559      112.829 
6.98603e-06      8.92780     -25.4731 
2.04255e-05      10.8476     -45.5241 
3.39493e-05      11.8797      135.136 
-4.67388e-05      12.7038      51.7762 
7.32616e-05      10.9800     -52.9218 
-2.03724e-05      9.21628     -144.896 
-6.93015e-06      9.34039     -3.80489 
-6.90891e-06      11.3931     -123.690 
6.90976e-06      6.02203      51.6078 
0.000152339      13.7897      45.6460 
-2.00115e-05      5.87751      8.02148 
-3.38117e-05      10.2074     -104.988 
-1.36798e-05      13.8316      42.3615 
-2.67589e-05      10.4175      142.095 
2.82975e-05      13.7631     -42.1737 
-0.000164545      10.3574      99.3354 
0.000118752      10.1086      94.3126 
-1.34228e-05      11.7807      142.451 
2.04406e-05      13.4501     -131.202 
-4.63504e-05      9.32093     -3.81285 
7.39174e-05      9.82043      136.979 
2.02296e-05      4.25560      164.464 
-2.03457e-05      10.2141     -15.5586 
-6.82478e-06      6.56388      164.993 
-6.83011e-06      9.97779     -114.765 
-6.81603e-06      8.80078      86.0888 
-3.35071e-05      9.75209      36.4925 
6.77017e-06      9.23853     -136.665 
-1.34717e-05      9.32123     -170.739 
2.66711e-05      9.07426      157.447 
-3.94698e-05      11.3823     -123.608 
-6.74657e-06      6.56916      164.822 
5.26375e-05      9.32028      173.468 
0.000101099      10.2595     -46.9739 
-5.97447e-05      14.1423     -134.770 
0.000150786      13.4373     -131.140 
6.73371e-06      10.8487     -43.8790 
7.25021e-05      9.65305     -64.6043 
-0.000124585      13.8452      42.4235 
1.98927e-05      12.4878      45.0657 
-1.97329e-05      8.89158      166.337 
1.37100e-05      6.86047     -169.246 
2.63397e-05      12.7426      45.5726 
-1.32296e-05      6.39247      163.833 
-6.67555e-06      7.02809     -31.3803 
-1.31920e-05      8.80478     -73.9097 
5.88314e-05      9.89201      2.78275 
6.67393e-06      10.5933      62.0808 
4.57877e-05      7.89056     -122.159 
-6.63884e-06      12.1149      39.7102 
5.22762e-05      10.5754      62.0294 
-1.98439e-05      10.7307     -69.9443 
-6.65208e-06      10.1634      112.930 
1.97201e-05      11.7166      128.416 
3.93998e-05      4.23609      164.391 
-2.61522e-05      8.87190      166.306 
-3.27054e-05      9.34123     -170.759 
1.31272e-05      7.83705      168.518 
-6.60367e-06      9.07289      93.0342 
3.26796e-05      12.3811      145.797 
-6.58453e-06      8.80213      85.9621 
3.25679e-05      9.28476     -62.8302 
1.95530e-05      12.8118     -137.594 
2.61194e-05      12.5610     -43.7099 
7.16280e-05      13.7524     -131.877 
-3.92304e-05      13.0260     -134.190 
1.30887e-05      8.96686     -45.7256 
6.57749e-06      10.8498     -43.7306 
1.95833e-05      12.8427      45.8830 
3.25953e-05      11.4575     -63.3443 
-2.60801e-05      10.1931     -105.128 
-1.95592e-05      4.82029     -33.4946 
-3.25879e-05      9.68324      71.4513 
-2.60799e-05      10.7376     -69.8428 
-9.10500e-05      14.1566     -134.828 
5.20590e-05      10.8245     -160.125 
-3.25320e-05      9.05266      93.0410 
-6.54453e-06      10.4785     -56.1267 
6.51745e-06      5.62359      129.809 
-6.51406e-06      12.4500     -140.017 
-6.51423e-06      9.90983      14.3719 
1.30369e-05      7.64751     -110.992 
-1.30044e-05      9.63328      41.6339 
-1.95080e-05      5.71599      154.511 
6.51119e-06      9.73364     -72.0483 
4.55204e-05      10.0301      95.7234 
1.29953e-05      9.05556      157.398 
-6.51335e-06      8.93137     -65.3879 
2.60108e-05      10.0022      76.3526 
4.55111e-05      13.3930     -44.4552 
-4.55400e-05      9.15256     -6.14670 
6.51178e-06      7.73941     -133.220 
3.25549e-05      9.76522     -71.8630 
1.29916e-05      10.9249      110.691 
-2.65595e-05      6.37373      163.784 
-5.85233e-05      13.0124     -134.129 
-6.51892e-06      10.1982     -105.234 
-6.51048e-06      6.42105      11.1313 
6.49467e-06      11.9293     -32.3305 
-6.51107e-06      10.6460      69.3168 
6.51688e-06      10.5735     -113.995 
-1.94661e-05      12.0330      50.4630 
1.29999e-05      9.48698     -71.5651 
-1.30076e-05      13.8810     -46.9277 
-6.48979e-06      11.5326      145.812 
1.94854e-05      10.2680      175.754 
1.94708e-05      7.75329     -133.329 
1.29704e-05      10.5458      75.7264 
1.94762e-05      10.3079     -28.2553 
-6.48196e-06      10.4672     -56.2188 
-1.95182e-05      10.7463     -69.4074 
-2.60362e-05      13.4953      41.0343 
-1.29770e-05      12.2227     -46.4577 
3.24970e-05      13.8033      45.5881 
-1.95130e-05      11.5493      145.868 
6.49617e-06      11.8138     -127.918 
1.29635e-05      9.96741     -69.5636 
-1.30148e-05      9.32451     -170.617 
-1.30118e-05      10.7341     -72.5442 
-1.30205e-05      11.8209     -56.5248 
6.48733e-06      9.64470     -64.7090 
1.95557e-05      10.0171      76.4926 
2.01677e-05      8.22783      20.6398 
6.49050e-06      12.6121     -49.5655 
-6.49485e-06      4.17685      124.067 
6.48961e-06      12.8262     -137.653 
-6.48766e-06      12.7968     -40.4362 
6.48436e-06      9.99740      76.4655 
6.51042e-06      9.81838     -164.039 
6.52353e-06      10.4634     -76.1750 
-6.52581e-06      8.52138     -32.8322 
5.87965e-05      12.1461     -50.4120 
-4.37171e-05      12.2210      55.7372 
2.78482e-05      13.7495     -42.1111 
-2.11603e-05      9.68273     -113.494 
-7.27192e-06      10.3418      20.6086 
2.06824e-05      8.60133     -111.554 
7.12150e-06      11.4526     -142.448 
2.03873e-05      13.4041      49.4158 
-2.05703e-05      9.30071     -3.82115 
-2.05458e-05      13.5203      134.519 
-6.91038e-06      10.3297      20.7494 
2.00767e-05      12.5756     -43.6461 
1.34283e-05      10.4731     -14.4893 
1.33907e-05      10.2142     -63.4839 
-6.73022e-06      10.6579      69.4572 
-1.32643e-05      10.4846      25.5399 
-6.69240e-06      11.7782     -119.613 
-6.70891e-06      7.86196     -26.1102 
-1.31820e-05      6.98587     -64.0212 
6.68255e-06      6.04076      51.9927 
6.66779e-06      5.35229     -16.9462 
6.60867e-06      11.4650     -142.368 
6.60990e-06      14.1462     -136.373 
6.58867e-06      14.0629     -43.3849 
-6.57044e-06      11.6364     -53.3850 
6.57597e-06      10.0818      107.790 
6.53815e-06      11.5405      117.675 
6.54341e-06      13.8858      47.3937 
-6.55480e-06      7.64470      78.8390 
! Tentative model.
! Flux (Jy) Radius (mas)  Theta (deg)  Major FWHM (mas)  Axial ratio   Phi (deg) T \
! Freq (Hz)     SpecIndex
7.18451e-06      13.7495     -42.1111 
