! Center RA: 12 21 31.69052,  Dec: +28 13 58.50019 (2000.0)
! Established model.
! Flux (Jy) Radius (mas)  Theta (deg)  Major FWHM (mas)  Axial ratio   Phi (deg) T \
! Freq (Hz)     SpecIndex
 0.0713584      0.00000      0.00000 
 0.0156736    0.0286526     -45.0000 
0.00819826    0.0446338     -26.9958 
0.000434194    0.0562440      135.000 
0.00394725    0.0848966      135.000 
0.00128222     0.100252      143.216 
0.00265426    0.0720098     -33.5245 
0.00160710    0.0562440     -45.0000 
0.000333920     0.113549      135.000 
0.000982150    0.0202604      0.00000 
0.00363803     0.100252      126.784 
0.00134992     0.279894      90.0000 
0.000348048     0.128090      128.817 
0.00259268     0.116465      121.027 
0.00159270     0.280627      94.1402 
0.00145033     0.240977      94.8229 
0.000156920    0.0720098      146.476 
0.000307842     0.243395      99.4042 
0.00101732    0.0633577      161.350 
0.00125708     0.134233      116.565 
0.00114165    0.0397705      180.000 
0.00230161     0.260423      94.4620 
0.00284646     0.145849      105.824 
0.00106481    0.0286526     -135.000 
0.00112746    0.0446338     -63.0042 
0.000431451     0.302778      97.5477 
0.000109705    0.0828082      165.838 
0.000216152     0.164706      103.973 
0.00120050    0.0896014      153.650 
0.000104888     0.184432      102.453 
0.000686239     0.322129      97.0919 
0.00121011     0.223431      100.253 
0.00287604    0.0720098     -56.4755 
0.00181461     0.126477      108.327 
0.000811923     0.204262      101.227 
0.00170237     0.345185      100.015 
0.000284750     0.209153      106.680 
0.00398148     0.365154      99.4623 
0.000836663     0.161670      29.7779 
0.000480644     0.369026      102.567 
0.000276457     0.101837      168.524 
7.36315e-05     0.107434      158.273 
0.00175806     0.250509      118.638 
0.000409295    0.0998015      90.0000 
0.00130258     0.101837      101.476 
0.000719074     0.342244      96.6731 
0.000668922    0.0828082      104.162 
0.000175540     0.282706      98.0871 
0.000442698     0.262662      98.7088 
0.000806485     0.907248      104.025 
0.00263009     0.100252     -53.2159 
0.000374662     0.582160      105.935 
0.000534286     0.887605      104.342 
0.000582669      1.15578      113.453 
0.000102551     0.388092      101.940 
0.000293425     0.101837      78.5245 
9.68928e-05     0.244605      125.006 
0.000238877     0.840993      107.982 
0.00167036     0.577108      104.072 
0.000392765      1.12917      112.919 
0.000266480     0.107434      68.2729 
0.00171086     0.821746      108.418 
0.000305980     0.256296      128.581 
0.000497742      1.16399      114.368 
8.25881e-05     0.116465      58.9729 
0.000263891     0.128090      51.1829 
0.000113381     0.141141      135.000 
6.93015e-05     0.156126      140.265 
0.000401348     0.921752      102.554 
0.000161662     0.141141      45.0000 
6.77281e-05    0.0848966     -45.0000 
6.63534e-05     0.223834      63.5208 
0.000192200      1.17217      115.236 
0.000218902     0.220795      5.26495 
6.47918e-05     0.144435      146.227 
0.000234904     0.233573      59.0678 
0.000119440     0.161670      150.222 
6.13250e-05     0.926189      103.732 
0.000168837     0.269397      131.952 
5.98819e-05      1.18095      116.125 
2.93753e-05      1.22574      118.244 
0.000821353     0.240977      4.82291 
8.38764e-05      1.12172      112.001 
0.000371472      1.23546      119.072 
0.000132636     0.178866      153.327 
0.000101574     0.496341      130.094 
0.000100836     0.945882      103.441 
5.23551e-05     0.216445      56.3099 
0.000273119      6.50020      104.248 
6.93695e-05      1.08152      109.453 
0.000747344      3.32273      104.290 
5.06007e-05      6.48355      107.596 
0.000278939     0.244605      54.9936 
0.000587680      6.50214      107.544 
0.000167975      1.06333      94.3305 
8.76144e-05     0.156126      39.7351 
0.000228761      1.07494      108.435 
0.000128125     0.283342      135.000 
0.000541074      1.24505      119.856 
0.000111549     0.197181      155.971 
0.000752983      3.07442      98.6048 
0.000214617     0.509625      131.837 
0.00105352      9.23489      109.218 
0.000193456      6.47577      104.125 
0.000677315      7.43266      110.971 
0.000771418      1.06498      95.3772 
0.000101584     0.941538      102.286 
0.000382342      6.49542      104.081 
0.000298167      6.72728      115.347 
0.000308578     0.256296      51.4188 
0.000694805      6.71863      115.191 
0.000115232     0.215843      158.162 
0.000223406      5.75387      112.910 
5.86090e-05      1.04313      94.4145 
0.000366233      6.32348      113.483 
0.000132713      3.32804      112.245 
0.000366854      8.86880      111.705 
0.000368481      8.13360      113.476 
3.64956e-05      6.09702      108.551 
0.000289375      5.72733      112.802 
0.000242844      3.56905      106.602 
0.000247170      8.44769      106.503 
0.000489700      8.07472      106.549 
0.000287584      7.13782      105.437 
0.000462088      2.97880      108.796 
0.000171762     0.297458      137.658 
0.000276939      3.33576      112.567 
0.000371771      7.00543      106.420 
0.000132626      3.72698      102.394 
0.000317431      1.10718      110.056 
0.000125313     0.227911      164.728 
0.000433189      1.25526      120.658 
0.000263295      8.14119      115.308 
0.000307972     0.608549     -9.43909 
0.000121417      6.11552      108.493 
1.71018e-05     0.234065      159.938 
0.000227421      3.63189      117.555 
1.66761e-05      7.42077      111.168 
0.000355383      7.85880      111.339 
0.000181882      9.06503      109.593 
0.000516829      7.43966      111.111 
0.000160977      6.50828      107.714 
0.000603536      9.01330      104.651 
0.000140901      8.86133      111.583 
1.56284e-05     0.209153      163.320 
0.000167887      9.18762      110.251 
0.000225744      6.03984      104.770 
7.05946e-05     0.284207      50.6787 
0.000207298      5.74601      112.724 
0.000242868      3.74604      102.330 
4.29551e-05      6.80534      108.329 
0.000171479      8.45347      106.635 
0.000322711      8.14139      113.602 
5.44586e-05      6.74559      115.274 
0.000218774     0.170734      20.5855 
0.000184390     0.269397      48.0484 
4.06031e-05     0.271765      162.816 
0.000115897      1.36300      112.428 
0.000223809      7.04874      113.582 
0.000332737      3.63260      118.259 
0.000352005      8.12356      115.367 
0.000191566      7.11829      105.481 
2.65555e-05      6.87533      107.958 
0.000287594     0.627803     -9.14708 
2.65657e-05      5.91828      103.282 
7.60279e-05      7.02487      106.373 
6.33385e-05     0.596781      103.599 
0.000192314     0.581230      153.468 
0.000244686      5.91383      103.098 
1.30113e-05      7.72230      106.089 
6.30696e-05      4.10659      101.799 
0.000225961      7.73619      105.903 
0.000159685      8.49734      111.978 
2.48626e-05     0.247514      165.964 
0.000115224      6.88792      107.754 
6.86655e-05      6.34207      113.410 
9.16852e-05      5.71980      112.622 
0.000108573     0.828371      109.748 
-0.000291810      6.63252      101.479 
3.58600e-05     0.243395     -99.4042 
0.000248312      8.43478      106.673 
0.000237327      4.11078      102.075 
2.38052e-05      8.16320      111.409 
4.60783e-05     0.592344      101.694 
9.73718e-05      8.09342      106.509 
0.000138360      6.22453      107.389 
-0.000102823      6.61340      101.513 
1.16671e-05      6.79253      108.545 
8.55688e-05      1.37086      113.211 
0.000179875      9.24158      109.337 
0.000125231     0.240977     -94.8229 
6.47451e-05      6.86685      111.710 
4.31903e-05      7.10422      105.682 
-0.000145439      2.56270      97.6224 
5.25535e-05      8.17062      111.541 
4.35224e-05      6.49052      103.908 
1.11733e-05      3.62305      117.977 
0.000103543      3.30929      112.378 
0.000103329      3.93192      113.698 
4.24316e-05      6.78028      108.754 
-0.000183346      6.98122      103.083 
-0.000183388      9.04377      112.083 
0.000111508      1.28304      120.975 
6.06551e-05      7.15665      111.478 
-0.000150856      3.21781      124.876 
2.08309e-05      6.93477      106.760 
3.11176e-05      8.84355      107.368 
7.05173e-05      1.06707      96.4603 
6.88985e-05      6.98672      106.465 
7.91784e-05      6.50946      103.866 
-7.91921e-05      9.33337      111.894 
1.99602e-05      3.56353      106.302 
2.98912e-05     0.724832      6.35984 
-5.90779e-05      3.49870      120.966 
4.90842e-05      8.83775      107.247 
1.98296e-05      6.01529      104.640 
3.90770e-05      3.01528      118.089 
1.98573e-05      6.76110      108.809 
-3.88605e-05      6.83909      99.7662 
2.91486e-05      4.09098      97.0168 
6.79213e-05      9.20663      110.207 
-3.89489e-05      7.08020      98.6127 
2.88635e-05      2.94664      113.614 
9.63930e-06      6.76766      108.971 
9.63367e-06      6.89390      107.908 
-0.000557101      3.33858     -46.4571 
-0.000860173      3.99614      41.3458 
-0.000996438      10.7969     -109.141 
0.000659787      7.71047      133.423 
-0.000642513      7.62079     -73.8492 
-0.000685632      9.34892     -70.6357 
-0.000530385      10.9047      45.6691 
-0.000467682      4.33855     -34.8637 
0.000562552      9.73125     -26.6164 
0.000550572      11.6509     -55.1380 
-0.000175356      3.32465     -46.7102 
-0.000236678      10.4258      168.605 
-0.000594088      6.81467     -29.3481 
-0.000233524      9.90569      1.96656 
6.08279e-05      1.56822     -84.1503 
-0.000433507      9.39140     -124.063 
-0.000534262      10.1835     -7.33239 
0.000269927      1.56635     -84.8602 
-0.000115444      13.4498     -130.418 
-0.000324047      8.16070      142.570 
0.000224676      7.95237     -115.791 
0.000383655      10.1838      100.293 
-0.000470222      9.95909      84.9295 
-0.000311815      5.62948     -61.3408 
-0.000521847      10.1093     -158.411 
0.000427141      8.83145     -146.924 
-5.72276e-05      3.35329     -46.6956 
0.000160949      10.0984      44.1992 
-0.000207563      5.78802     -51.0305 
0.000206233      6.16615     -39.4744 
-0.000357974      10.4059      168.583 
0.000310359      7.60529      32.9798 
0.000309439      10.4695     -28.2788 
0.000256290      9.74035      90.4723 
0.000159136      7.71298     -20.1750 
-0.000306023      12.7393     -138.627 
-0.000203281      13.4624     -130.481 
-0.000254755      9.59732     -124.385 
0.000198008      10.0843      44.1166 
-0.000204124      11.7421      133.483 
0.000205108      6.47235      58.5213 
-0.000302142      10.9963     -39.5397 
0.000105270      4.25657     -108.352 
-0.000253052      9.98436      129.716 
0.000422702      4.92351     -84.4024 
-0.000299826      7.31826      94.0747 
-0.000150180      9.88619      1.97044 
-0.000199548      12.1578      52.1477 
5.26945e-05      9.51222     -113.546 
0.000148802      9.59653     -86.6559 
0.000297425      7.96121     -115.923 
0.000150431      11.1616      30.4716 
-0.000102232      11.6540      130.058 
-0.000149515      7.37847      9.35886 
-0.000195766      12.4618     -47.9923 
-0.000148705      7.54301      11.1624 
-0.000147193      7.06584     -172.193 
-0.000101739      3.50423      162.388 
5.13196e-05      9.49752      30.7798 
0.000148759      7.54971      25.7501 
0.000196190      9.53821     -113.611 
0.000291240      10.1875      100.405 
-0.000145478      13.5256     -46.6770 
0.000193431      4.44206      80.4120 
-5.05193e-05      8.18492     -139.458 
9.77863e-05      6.62609     -76.3824 
0.000146686      11.4606      37.2706 
0.000191979      12.9189     -48.2634 
9.80853e-05      5.36777      156.965 
9.75353e-05      4.26950     -108.008 
0.000143930      9.51493      30.7173 
-9.73503e-05      4.18632      135.777 
-6.85412e-05      8.69236      127.240 
-0.000143551      3.52355      162.487 
4.88079e-05      6.46601     -76.2234 
-4.87800e-05      8.59885      135.562 
-9.48260e-05      10.9183      45.5959 
-4.85445e-05      11.4023      144.998 
9.49060e-05      7.73200     -20.1233 
-9.46943e-05      2.45788      145.272 
9.41716e-05      8.00078      89.1402 
-4.76623e-05      8.16953     -139.366 
9.39625e-05      9.98573     -147.265 
-4.72111e-05      11.3857      144.940 
-4.71439e-05      3.33943     -46.9486 
-4.70898e-05      10.7992      41.2447 
-4.68249e-05      8.61252      135.469 
4.67558e-05      4.20661     -109.725 
-4.67158e-05      8.17303      142.457 
4.66739e-05      6.46139     -76.3914 
-4.67064e-05      3.48503      80.7567 
-4.64144e-05      12.0163     -126.335 
-4.63562e-05      10.1742      30.3456 
-4.62107e-05      11.3741      145.023 
-4.62222e-05      11.6391      130.120 
-4.62650e-05      12.3895      138.927 
0.000705201      8.12271     -27.5759 
-0.000111378      9.23335      132.016 
-0.000430692      9.38022     -51.4927 
0.000152197      8.11383     -27.7642 
-0.000199903      8.64992      127.957 
-0.000104776      12.3582     -129.614 
-0.000356443      3.65430     -119.513 
0.000201033      8.36018     -68.5290 
-0.000650130      9.24642      132.105 
-0.000242158      7.32587      9.74212 
-0.000334292      8.45633     -125.082 
-5.22607e-05      12.4147     -129.642 
0.000406251      7.44735      40.5337 
0.000229925      3.74639      3.36444 
-0.000275004      9.97230      48.2515 
-9.88845e-05      9.32600     -92.0888 
-0.000356619      9.93713      85.0355 
-0.000659798      12.2048      131.081 
-4.91498e-05      12.4427     -129.651 
-0.000213284      7.56205      96.0721 
-0.000179938      12.3301     -129.605 
-4.71150e-05      7.38424      94.6631 
0.000207478      8.60474      91.8640 
-0.000172026      8.71210      126.316 
-0.000205019      10.2164     -156.095 
-8.02884e-05      9.30651     -92.0932 
0.000157788      10.2809     -65.0286 
-4.55003e-05      12.4557     -129.723 
0.000332752      8.33392     -68.6077 
-0.000163306      9.05277     -109.757 
-0.000279184      12.9061     -128.646 
0.000125558      8.85759      166.153 
-0.000353377      7.36317      94.5183 
8.58914e-05      7.89762      63.3668 
-0.000304642      9.25011     -40.4400 
0.000201610      6.70621     -74.4289 
8.45009e-05      4.34369     -9.80730 
-0.000284773      11.9161      126.331 
-0.000190453      9.30727     -92.2179 
0.000155442      7.06399     -137.639 
0.000349500      4.84817     -117.517 
-0.000273862      12.3742      138.865 
4.27775e-05      5.77528     -94.1726 
-0.000157481      8.63747      127.851 
-0.000267715      12.4836     -129.737 
-4.24071e-05      5.34140      166.795 
-8.25812e-05      3.11843      83.7420 
0.000223373      10.0915      96.8286 
-0.000146745      7.34510      9.71637 
-0.000253949      12.1296     -132.661 
-8.08899e-05      1.98941     -74.8472 
-8.02500e-05      9.82949      85.5647 
-0.000358513      8.25086     -16.7671 
-4.14967e-05      8.79100      161.564 
0.000141235      3.90304     -177.653 
-0.000185700      11.9194     -47.5846 
-0.000269703      5.38901     -168.441 
-4.10433e-05      5.40364      165.861 
7.89632e-05      10.3832     -170.466 
0.000208212      5.65854     -80.4353 
0.000112455      10.6068     -161.188 
-0.000178907      8.64508      131.249 
0.000298778      9.80468      157.828 
-0.000144011      9.52846     -50.1950 
-7.59583e-05      5.42329      165.914 
0.000148451      7.40202      148.929 
0.000175990      1.25286      155.477 
-0.000346066      10.2715      115.116 
0.000112829      3.79503      34.6987 
-0.000231061      10.1583     -162.348 
0.000105876      5.79405     -93.9582 
-0.000174378      5.36040      166.843 
7.64492e-05      8.47811      139.016 
3.90980e-05      8.90808      168.213 
0.000341826      7.94568     -48.1620 
-0.000143884      3.11629      84.1123 
-7.33725e-05      6.09415     -48.7291 
-0.000141205      12.3145     -129.665 
-7.45797e-05      9.95882      48.3385 
-0.000208124      12.1767      50.5312 
0.000104386      4.36291     -9.76365 
0.000120200      7.95921     -48.0533 
-3.77707e-05      8.44470     -124.969 
7.28903e-05      10.4339     -33.5072 
0.000102068      11.3341     -32.6821 
-6.92672e-05      9.04059     -109.921 
-3.74236e-05      7.12371      10.6779 
-3.71614e-05      8.34417     -8.13229 
0.000101193      7.88019      63.3032 
0.000112621      10.2992     -65.0762 
-0.000337679      6.89462     -29.1679 
-3.68742e-05      8.77249      161.523 
-0.000388644      9.36327     -124.030 
-0.000332817      9.20713      135.264 
3.67703e-05      7.05495     -12.7754 
-3.67055e-05      8.70842      126.500 
-0.000125859      11.9344     -47.6502 
0.000222280      7.46219      40.4363 
6.83093e-05      6.77453     -68.8869 
0.000227859      6.44059     -146.654 
-9.79957e-05      8.69134     -50.2261 
0.000970111      11.2704      117.246 
3.64341e-05      11.1177     -58.3107 
0.000200088      10.4919      104.010 
0.000167080      13.0514     -41.3334 
6.95547e-05      6.84280     -117.318 
-0.000487323      13.2168     -39.3507 
-0.000302525      10.3530     -45.7811 
-0.000155407      8.24771      71.0408 
7.00067e-05      10.1006      9.57499 
-3.58395e-05      5.54873      24.7178 
-3.57900e-05      10.1390     -162.313 
9.91630e-05      11.3801     -57.7079 
6.71394e-05      11.1680     -149.073 
0.000304717      11.1188     -60.1146 
3.54003e-05      8.92718      168.239 
0.000156093      10.3799     -170.576 
-0.000218945      9.84969      85.5738 
-9.50535e-05      9.36761     -51.5896 
0.000174892      8.37485      35.4744 
-3.47887e-05      8.66024      126.736 
0.000101306      10.1639     -104.940 
-6.67260e-05      9.12450     -91.7578 
0.000127775      8.46484      139.119 
0.000198848      10.2774      164.422 
-0.000124933      9.97397      48.4159 
0.000123735      7.48689      60.5600 
8.84262e-05      4.92545     -84.1765 
-0.000505773      10.2448      115.065 
-0.000278554      8.65617      126.924 
0.000114744      11.1070     -58.3996 
6.53751e-05      9.70940      156.444 
-0.000295530      12.9093     -128.519 
-9.61546e-05      10.7967      119.034 
0.000212382      5.56964      75.0164 
0.000150212      8.93134      168.111 
-3.37208e-05      9.15653     -143.706 
-9.50125e-05      2.30421      93.4914 
3.33566e-05      6.70080     -74.5958 
6.24674e-05      7.07398     -12.7404 
-0.000380283      9.03371     -109.800 
-0.000333389      12.4324      50.5473 
-6.27181e-05      6.89145     -42.9968 
-0.000141658      11.2579     -47.9529 
3.27798e-05      6.77796     -59.5029 
0.000113713      9.88234     -58.6587 
-0.000118087      11.8488     -127.662 
-0.000168541      10.2122     -36.4000 
-3.26272e-05      5.42825      165.706 
-3.25642e-05      5.55692      24.9005 
-9.27397e-05      9.86531      15.6431 
8.73978e-05      10.4170     -33.5687 
-9.12647e-05      3.64295      161.767 
-9.36291e-05      5.33681      167.007 
3.23008e-05      4.34486     -87.3570 
3.21421e-05      7.41938      149.009 
-3.20695e-05      7.55994      95.9194 
0.000258892      7.20415     -7.65577 
-0.000146122      10.9671      123.168 
-0.000305888      3.09493      84.4345 
-3.19634e-05      10.2275     -19.1807 
0.000149550      10.3211      164.373 
-0.000108938      9.04821     -145.539 
0.000143276      6.86250     -6.35956 
9.16280e-05      13.4790      45.9022 
-0.000271681      12.8901     -133.177 
0.000233432      10.1587     -104.830 
0.000210964      6.85177     -117.463 
3.12340e-05      10.4870      103.903 
-0.000412672      11.8954     -46.0198 
0.000167087      4.34580     -87.1000 
3.11043e-05      9.59129     -113.731 
0.000157844      6.76808     -59.6453 
0.000327993      10.0978      124.919 
0.000155485      10.1063     -123.783 
8.55407e-05      13.9445     -134.651 
-0.000143206      9.28780     -92.3430 
-0.000112155      10.7228      120.488 
-0.000115655      9.82620      1.98247 
-3.06671e-05      10.2339     -19.2839 
-0.000191436      10.8800     -112.934 
-0.000217394      12.6893     -46.4688 
5.97344e-05      10.1140      96.9289 
0.000178081      10.6252     -161.222 
-3.05382e-05      9.03676     -145.645 
0.000115125      8.75522      10.7985 
-5.78433e-05      8.31846      82.1243 
-3.04355e-05      11.5240      53.4674 
5.90872e-05      8.52745     -166.157 
0.000299375      11.9603     -53.2257 
-0.000114608      9.70033      179.765 
0.000256583      9.89575      140.906 
-0.000131416      9.33695     -98.2525 
-0.000110897      10.6283      34.1108 
-2.98537e-05      9.70795     -161.379 
-2.97838e-05      11.2293     -47.9604 
-5.54053e-05      11.9045      126.255 
-8.44315e-05      5.59657     -66.1810 
2.96651e-05      4.90334     -84.3793 
-0.000101725      10.3275     -125.382 
0.000199719      9.59946     -113.842 
-0.000310587      10.2530     -19.2465 
-8.37033e-05      3.31863     -63.1279 
-0.000218924      9.52591     -50.0234 
-2.93865e-05      8.91456     -149.234 
0.000125653      9.56011     -21.0882 
5.49020e-05      8.35878      165.165 
-0.000192649      12.9219     -128.590 
-0.000157302      10.3249     -45.7862 
-2.91722e-05      9.23470     -40.5215 
-0.000161531      11.9200     -50.5149 
0.000101577      1.26140      154.639 
7.96277e-05      12.4279      143.109 
0.000199071      6.27664      66.1286 
-2.89358e-05      5.46618     -144.685 
8.27427e-05      10.6611      63.4836 
2.88808e-05      10.1172      9.44276 
2.87554e-05      10.1344     -56.1852 
-2.87407e-05      9.84814     -143.340 
-5.29034e-05      12.2987     -145.535 
-0.000105289      3.70352     -62.3291 
-2.86102e-05      7.58078     -38.8928 
0.000106755      11.2796      117.337 
-5.28164e-05      9.93047      129.524 
0.000196845      6.93048      86.8594 
0.000119689      13.4931      45.8404 
-0.000421183      8.93197     -149.300 
-0.000198139      9.71444     -161.266 
-5.52169e-05      9.68202      82.5230 
0.000199472      12.0939      32.8480 
0.000382670      10.5007      42.8397 
-0.000185029      11.0377     -116.473 
0.000396189      13.2962      46.2188 
2.80129e-05      1.27974      155.028 
2.79789e-05      9.72729      156.490 
2.79013e-05      10.1164      97.0386 
-0.000125471      5.38013      166.892 
7.82833e-05      7.29619     -20.3733 
2.78538e-05      3.76684      34.6208 
7.53141e-05      8.90192     -16.8464 
-0.000340843      10.8960     -37.0167 
2.77708e-05      6.42274     -76.3079 
-7.89388e-05      9.87059      15.7521 
0.000413672      10.6820      64.7293 
-2.75584e-05      9.14021     -143.631 
-5.31301e-05      10.0141     -79.2946 
9.13754e-05      13.0362     -41.3922 
-2.75641e-05      11.9950      57.5288 
0.000196050      4.49074      67.2012 
2.74426e-05      4.78101      1.19611 
-2.74226e-05      6.08273     -49.1319 
-2.74234e-05      9.14145      146.691 
-0.000216594      13.7182      135.472 
7.74664e-05      11.8945      144.303 
-5.42125e-05      12.0688     -50.1078 
0.000227502      7.88897      63.1766 
-2.72964e-05      8.67237      126.843 
-2.72906e-05      8.10689      131.198 
-0.000404520      13.0526     -137.610 
7.84738e-05      12.3644     -127.112 
-0.000264549      8.15089     -115.119 
-7.59586e-05      9.13244      26.9567 
-2.72247e-05      10.2254      85.9602 
5.26686e-05      6.29453     -31.6209 
5.31114e-05      9.67682     -108.435 
0.000196727      5.68116      160.036 
-2.69502e-05      7.48651      130.883 
0.000116419      10.1408      97.2523 
-0.000202106      9.78816     -139.474 
-0.000552195      11.0196     -116.520 
-4.84385e-05      9.83190     -143.269 
-5.28046e-05      12.4123      36.9447 
4.98165e-05      8.42322     -164.578 
-9.69998e-05      3.48606      176.705 
0.000159486      9.76538     -104.835 
0.000167299      6.42739     -76.1390 
-7.44494e-05      8.65174      127.107 
-7.75620e-05      4.90334      92.1049 
-2.66054e-05      12.0121      57.5807 
7.73888e-05      4.47276      67.1043 
-5.05407e-05      5.44966     -144.561 
-5.18612e-05      12.2188      44.8656 
-0.000280217      3.55734      48.8743 
-0.000100679      9.84815      85.6914 
0.000300560      4.36529     -87.1130 
-0.000329592      9.71984      179.766 
9.94966e-05      10.2969      164.453 
-0.000192435      9.26841     -92.4732 
4.92402e-05      11.4293      39.1780 
2.60845e-05      9.54641     -135.764 
-2.61183e-05      8.62505      127.744 
-0.000236794      10.9144      115.392 
0.000357660      12.3600     -127.241 
9.68855e-05      7.47762      40.3356 
-2.58484e-05      5.25830      171.473 
-0.000671902      12.0230      57.4992 
-0.000362295      12.0813     -50.0368 
-0.000126550      5.38514     -168.645 
-5.06772e-05      8.19349      101.121 
-6.92355e-05      8.63173      131.148 
-0.000108029      9.58520      66.6442 
-9.68814e-05      8.07880      131.189 
-5.04267e-05      8.68409      126.946 
9.67898e-05      4.88383      52.9875 
-7.43607e-05      4.56450     -92.5157 
8.45155e-05      8.37610     -74.2069 
-4.83430e-05      6.57982      77.3585 
-0.000244090      9.96053      48.5030 
-6.71257e-05      10.1835     -162.278 
4.91669e-05      11.3061      148.306 
0.000217140      10.7162     -25.6553 
-0.000154096      3.48723      176.385 
4.92453e-05      11.1954     -150.459 
-2.51981e-05      8.66790      127.027 
-0.000245950      9.57718      66.7554 
4.88861e-05      5.68178     -80.2752 
-0.000178908      10.6114     -68.8991 
-0.000285940      9.82794      85.6825 
0.000137160      10.6706      63.6260 
-8.86183e-05      4.64703      81.8306 
0.000112290      9.67043     -108.321 
-0.000144196      10.6170      34.0203 
0.000105535      7.20346     -14.3055 
9.08775e-05      11.3805      42.5764 
-0.000134022      13.7078     -133.640 
-0.000103997      9.33406     -98.1295 
-2.47572e-05      12.3016     -129.592 
4.74964e-05      4.80126      1.19106 
-4.84161e-05      10.8587      116.944 
2.46623e-05      11.2955      148.393 
2.46692e-05      8.84252     -146.814 
-0.000153278      12.4396      36.9625 
-0.000136005      7.72270     -134.161 
2.45622e-05      5.56444      75.2179 
0.000222928      11.7316      40.5071 
2.43861e-05      4.85756     -117.729 
-9.11940e-05      12.2044      44.9327 
-0.000186916      10.3769      120.075 
-0.000185111      12.3462      138.876 
9.24718e-05      8.61427     -62.4818 
7.02561e-05      4.46492      67.3438 
-6.99643e-05      4.90412      92.3414 
0.000650701      10.3511      80.8818 
-0.000107145      2.30307      92.9883 
-0.000163796      10.5372      39.7648 
0.000110440      5.32086     -82.8710 
2.41653e-05      8.06650     -110.008 
0.000228617      8.56880      4.68656 
8.84166e-05      13.9588     -134.710 
-8.84008e-05      11.9212     -47.7195 
-0.000332274      13.7613      135.530 
-4.64458e-05      9.85017     -115.368 
-0.000105693      9.89009      15.7203 
2.39330e-05      8.54712     -166.189 
4.72831e-05      7.45716     -162.200 
0.000175645      10.5263      13.8500 
-0.000118760      10.2240      86.0735 
0.000155533      8.85886     -146.883 
-4.58202e-05      8.85103     -4.79511 
-0.000182355      11.2429     -47.8837 
-2.36359e-05      9.15839      146.760 
-2.36176e-05      9.80595      1.98657 
-0.000175311      10.9782      123.257 
-4.56862e-05      8.19728      101.254 
-6.58325e-05      9.21831      132.100 
0.000124582      9.93590     -93.2298 
0.000199447      8.26289      144.656 
-4.60118e-05      10.8832     -112.700 
-0.000160720      11.5179     -118.525 
2.33543e-05      8.38284      165.066 
0.000189054      13.6089     -43.5701 
-4.41559e-05      8.63234      127.374 
-2.31941e-05      8.81077     -92.8607 
2.32325e-05      11.8786      144.249 
6.67919e-05      12.7554     -50.3442 
0.000161102      11.3127      148.447 
0.000191719      10.9058      56.7484 
-4.35254e-05      11.8649     -127.603 
0.000360695      8.72617      120.740 
4.36991e-05      10.2079     -161.138 
8.71609e-05      9.52623     -177.955 
-8.90289e-05      1.61895     -117.195 
-2.29668e-05      3.30952     -63.4408 
-4.43331e-05      13.4630     -134.880 
6.11555e-05      12.9551      140.386 
-2.28499e-05      8.71323     -6.32384 
-0.000183588      10.0608      168.535 
-2.26980e-05      5.60862     -41.8220 
-6.62033e-05      8.69628      127.053 
-0.000141685      10.8495      116.849 
0.000158650      8.79218     -167.385 
-2.27561e-05      6.87297      134.766 
0.000278631      10.3799     -99.4242 
-0.000195201      12.1901      131.141 
0.000335575      7.47574     -162.245 
4.32086e-05      11.1482      60.6761 
-6.30128e-05      5.21535      171.619 
0.000171305      10.1090     -120.168 
8.23579e-05      6.87116     -154.854 
-0.000332084      12.9049     -133.115 
-4.21495e-05      9.08275      175.959 
-0.000110330      12.7002     -42.2557 
0.000160837      9.93160      101.855 
0.000102215      12.9408     -135.688 
2.22267e-05      11.0072     -55.2125 
0.000144237      10.3832     -99.5345 
-0.000384150      8.92680      82.0177 
-6.32537e-05      9.17512     -8.27126 
-4.11749e-05      8.64845      127.292 
-6.05418e-05      12.4992     -129.678 
4.36523e-05      10.4213     -16.7309 
-8.41751e-05      9.37462     -124.133 
-6.28872e-05      9.24982     -92.6038 
0.000137064      7.49568      25.9494 
-0.000142522      10.8860     -112.467 
2.20137e-05      11.7523      126.560 
-0.000136283      8.56983      135.188 
2.20027e-05      12.5909      141.256 
4.14975e-05      8.17916     -150.236 
0.000137275      10.3175     -151.646 
-2.19533e-05      10.0905     -158.369 
-2.19545e-05      12.9039     -139.968 
-5.99671e-05      11.8710     -146.337 
-0.000115626      9.48353     -115.215 
-0.000122320      7.91237      126.263 
-0.000111947      9.68468      82.4042 
2.18075e-05      8.21873      144.611 
-7.87393e-05      5.62299     -66.0825 
2.18815e-05      7.84851     -58.3326 
-9.73072e-05      8.71111     -6.19630 
-8.15515e-05      12.2011      138.655 
-0.000185998      9.01259     -80.1628 
8.03013e-05      7.00589     -20.5546 
-6.28063e-05      12.3386     -133.162 
-4.18413e-05      10.8798     -37.0809 
-6.06641e-05      10.4530      168.409 
-0.000100317      12.7053     -43.3416 
-0.000108509      6.88725      134.885 
-2.13884e-05      9.13034      146.797 
6.10257e-05      8.77781     -61.8598 
5.99841e-05      3.02944      149.878 
-0.000128955      9.72704     -168.736 
-6.09695e-05      7.79061     -116.368 
-0.000171298      1.64625     -117.499 
0.000100202      12.1103      32.7979 
0.000130686      5.70021      160.105 
4.18765e-05      11.3112     -147.126 
6.06662e-05      10.3742     -122.799 
-8.24780e-05      10.4131     -19.7577 
-2.11790e-05      9.19405     -40.4121 
-2.11581e-05      8.68012      127.133 
0.000279860      11.1458     -60.0743 
4.08245e-05      4.86827      52.8493 
-2.10226e-05      8.77249     -71.5232 
-9.60297e-05      5.40500     -168.687 
6.09955e-05      3.18358     -136.786 
2.09293e-05      8.39075      35.3971 
4.09985e-05      4.76398     -105.083 
4.12095e-05      8.60493     -62.6015 
-6.05226e-05      4.96913      93.4630 
-7.74626e-05      3.37170     -72.7426 
-3.74909e-05      8.31581      82.2574 
-0.000281239      9.68947     -161.342 
-2.06755e-05      8.79128     -92.8670 
-0.000128720      9.63875      76.1953 
-2.05368e-05      5.40431      166.739 
-5.88756e-05      7.86052      100.851 
2.05272e-05      9.44462     -47.8338 
2.05113e-05      11.3233      148.360 
-3.84868e-05      1.53720     -71.7950 
-2.05262e-05      11.0513      51.0966 
-2.05333e-05      12.2331      44.9329 
-9.83309e-05      8.70850      127.159 
0.000211144      11.1779     -65.3619 
2.03677e-05      12.7829     -50.3327 
0.000123563      8.40206      35.5056 
7.62753e-05      10.6131     -161.088 
-0.000157407      9.70768     -87.7584 
-7.73859e-05      8.75328     -71.4812 
-8.99921e-05      8.98906     -67.0865 
3.93939e-05      10.4729      104.036 
-7.37563e-05      13.3434     -46.8823 
-3.93414e-05      4.54341     -92.2717 
-0.000143460      11.0636      51.0179 
0.000141000      9.52553     -178.077 
-7.77320e-05      12.7679     -138.619 
-9.52979e-05      7.70860     -134.053 
-0.000238905      12.4453      50.4753 
-3.93050e-05      11.8131      128.537 
0.000108679      13.9725     -134.767 
0.000178409      6.37415      131.693 
3.93303e-05      9.02437     -155.935 
-2.00175e-05      8.87296     -39.9706 
-0.000275449      10.0402      90.0000 
-1.99876e-05      6.85913      134.880 
0.000228138      9.76021     -104.720 
-0.000127669      8.02958      65.7320 
-3.90077e-05      6.60330      77.2240 
-0.000198587      13.3392      41.0495 
0.000107606      9.80772     -167.634 
0.000153922      12.5787      141.326 
9.00842e-05      10.3961     -16.6561 
0.000108007      12.7959     -50.2628 
7.24940e-05      10.1391     -104.859 
5.57120e-05      9.09341     -48.2078 
8.98214e-05      13.0151     -48.0521 
0.000169535      13.6236     -43.5114 
3.84694e-05      8.11682      138.298 
8.49094e-05      12.3702     -55.8713 
1.96461e-05      9.58093     -113.891 
-7.32047e-05      9.78570      1.99068 
0.000110542      10.1604     -89.6615 
-5.66427e-05      9.51290     -50.1169 
0.000118497      6.92944      87.0205 
-0.000224288      10.4321     -19.7201 
-7.49886e-05      9.26931     -92.5983 
-0.000188426      12.2187      45.0000 
-1.94382e-05      12.0666      38.0672 
3.69760e-05      10.3978     -28.2425 
1.93488e-05      7.48684      25.8100 
0.000107856      8.76863     -61.9722 
1.92745e-05      6.35290      171.311 
1.92682e-05      5.24814      13.6627 
3.72167e-05      9.43248     -48.0924 
1.92222e-05      11.7245      126.537 
-0.000191149      5.00766      86.7959 
-1.91869e-05      10.6425      38.0529 
-5.34088e-05      12.4644     -125.399 
5.59196e-05      3.16884     -136.535 
-1.91598e-05      3.56046     -166.359 
6.84882e-05      6.75786     -59.7935 
7.00068e-05      11.0238     -55.2725 
0.000187608      11.7714      34.3394 
-3.79512e-05      9.86026     -143.245 
-1.91167e-05      13.7468      135.471 
5.29099e-05      6.25061      66.2261 
0.000176006      8.99761     -156.000 
1.90380e-05      4.78147      1.43884 
9.01334e-05      7.47747      26.0173 
1.90469e-05      9.54572     -177.959 
7.17780e-05      12.3588     -55.9491 
-3.61514e-05      10.7126      120.395 
-8.91853e-05      13.7663     -46.7073 
8.79983e-05      13.3109      46.2791 
-0.000107485      10.1790      153.635 
-8.83109e-05      11.3798     -143.432 
3.67343e-05      4.77853     -104.793 
-8.91875e-05      11.5997     -46.2581 
1.88840e-05      10.4779      104.144 
3.50828e-05      13.2240     -139.663 
-5.36146e-05      11.2172      115.787 
0.000124456      12.3762     -127.184 
8.56517e-05      9.81245     -94.6759 
-1.87892e-05      12.3102     -145.457 
-7.07106e-05      8.80635     -87.7878 
1.87625e-05      13.6517     -43.5167 
1.87547e-05      9.60736     -113.948 
-0.000153032      11.8257      128.614 
-0.000203136      12.0369     -126.148 
3.68479e-05      12.5629      141.268 
-1.87268e-05      5.52401      171.257 
1.86861e-05      13.5072      45.7788 
-3.64093e-05      13.5904     -134.940 
3.63697e-05      10.6460     -64.6379 
-5.26928e-05      12.3520     -133.228 
6.88584e-05      6.33288      171.283 
-5.38214e-05      7.97976     -85.9773 
-3.69938e-05      12.8937      42.6745 
0.000134426      12.1383      32.8265 
-0.000219293      12.7527     -138.559 
-0.000100619      12.2163      138.718 
0.000199440      13.0216     -41.4490 
-0.000136490      10.9131      69.1724 
-3.60488e-05      4.97035      93.6875 
-1.84750e-05      10.0979     -158.262 
0.000184511      11.7387      51.9214 
-5.11320e-05      10.2021     -162.311 
1.84384e-05      4.21918     -109.382 
0.000103174      11.0964     -58.4887 
-0.000137127      8.72030      127.261 
-3.64264e-05      10.3108     -45.8669 
6.78552e-05      11.1778     -150.408 
1.83250e-05      10.4582      104.171 
0.000233565      13.2503      47.5683 
6.75887e-05      4.90529     -84.1525 
-0.000116980      11.9209      126.198 
-1.83155e-05      8.35728      93.7066 
-0.000103801      9.80357     -139.551 
3.51587e-05      4.97108      41.8979 
-0.000115652      3.36574     -73.0720 
0.000154402      10.9051     -52.2256 
5.21972e-05      10.2338      100.584 
6.75674e-05      8.46528      137.490 
-1.82029e-05      6.58428      77.1865 
-0.000297837      9.76030      179.881 
5.11978e-05      12.7223     -129.193 
-1.81359e-05      9.14857      76.0846 
-3.56929e-05      8.99612     -80.0136 
-0.000100330      3.55544     -156.465 
-3.50891e-05      11.7803     -47.7521 
-1.81458e-05      12.9189     -140.024 
-7.04571e-05      9.70108      111.276 
-8.45214e-05      12.8572      44.0541 
3.54747e-05      9.58885     -113.998 
5.24201e-05      8.10171      138.203 
-6.90963e-05      10.6041     -69.0012 
-0.000100020      10.2222      91.1231 
9.59667e-05      10.4630      104.274 
-6.80975e-05      10.2722     -19.2093 
5.18551e-05      12.6205     -136.670 
-6.66722e-05      12.6906     -43.4043 
-0.000328776      10.2632      115.017 
5.11136e-05      6.74205     -16.0163 
1.79279e-05      9.87916     -111.373 
-0.000100774      10.8970     -112.328 
-6.78312e-05      13.2947     -132.257 
-1.77854e-05      12.6816      42.7004 
-1.77786e-05      11.9076     -47.7916 
-5.11823e-05      9.48204      173.461 
0.000196851      14.0084      43.1485 
0.000130508      10.8449     -49.9371 
-3.44747e-05      7.92238     -1.30257 
-1.76883e-05      8.73263     -6.30974 
-5.15119e-05      8.35600      93.5680 
-8.37285e-05      9.69982      3.66370 
-6.73441e-05      7.90041      126.145 
3.40852e-05      7.22310     -14.2658 
-8.18155e-05      12.9785      47.3103 
6.67848e-05      6.98763     -20.6108 
-3.45983e-05      10.1666      59.5019 
6.76049e-05      10.4484      104.410 
8.17204e-05      9.61819      69.6804 
-1.74762e-05      8.46947      20.7456 
4.81950e-05      5.29791      129.638 
-5.03261e-05      11.8949     -45.8869 
-6.52212e-05      7.38855     -63.9893 
1.74544e-05      6.86148     -154.629 
-1.74383e-05      6.87344      135.000 
-0.000146687      9.37903      61.4686 
-8.19670e-05      7.69405     -134.158 
1.74652e-05      11.3656      42.6455 
-0.000130763      9.84670      85.8046 
3.41941e-05      3.07363      149.936 
-6.68349e-05      10.0807      168.558 
-0.000114248      12.9086      42.6136 
9.66603e-05      8.02532      115.226 
-8.30709e-05      5.63124     -65.8941 
3.44396e-05      2.29532     -112.549 
-8.22708e-05      9.59580      66.8032 
0.000113902      9.88629     -111.478 
9.90722e-05      12.7066     -129.251 
9.80399e-05      10.2479      143.330 
0.000145073      11.2542      117.749 
1.72945e-05      5.34341     -82.6904 
6.58290e-05      10.2957      29.0534 
5.05552e-05      9.82678     -167.659 
1.72296e-05      8.47973      86.0777 
6.66513e-05      11.4352     -151.822 
-0.000128742      11.9076     -50.5874 
-1.71703e-05      10.6105     -74.8099 
1.71461e-05      3.15417     -136.282 
-0.000161559      12.3912      141.817 
4.90809e-05      11.7470      40.4429 
-1.70823e-05      12.9320     -129.354 
-0.000128889      10.9889      123.342 
-9.63873e-05      13.4800     -46.0217 
0.000112104      9.93562      101.965 
8.22549e-05      10.1606     -89.5472 
-4.85260e-05      12.7241     -138.567 
6.44092e-05      11.3207     -125.291 
-4.91595e-05      9.40234     -124.162 
4.95644e-05      11.2105      59.9150 
-3.35370e-05      10.2972     -45.9448 
-0.000209167      10.6052     -74.9156 
-1.69414e-05      9.25072     -92.7245 
-6.43199e-05      11.2565     -47.8072 
-0.000128587      12.9349     -129.227 
-9.60436e-05      10.1695      153.486 
-1.68419e-05      10.9121     -36.9526 
-3.28542e-05      9.62403      1.66656 
4.87581e-05      9.57846     -112.336 
-1.67766e-05      7.39921     -117.880 
-1.67674e-05      8.63420      130.962 
1.66701e-05      11.9482     -53.3035 
4.86698e-05      13.7041      45.2951 
3.25199e-05      7.82857      137.591 
-3.17421e-05      10.7638      139.294 
-1.65938e-05      9.51096     -49.9479 
7.92006e-05      6.20932      38.1981 
-8.05510e-05      9.69374      111.164 
-6.33823e-05      10.1567      59.5967 
3.27188e-05      11.7553     -55.6069 
4.87689e-05      5.90887     -82.6087 
0.000142576      12.1717     -122.725 
-1.65295e-05      10.1965      153.684 
4.84734e-05      2.30287     -112.998 
4.78169e-05      8.81195     -167.414 
-3.22050e-05      10.8404      116.753 
-3.22911e-05      8.33653      93.5763 
7.90913e-05      10.4649     -117.054 
3.20887e-05      5.89054     -158.485 
1.64256e-05      10.6277     -64.5911 
-6.38233e-05      10.0803      116.767 
9.48434e-05      10.9221      56.8045 
-3.26228e-05      12.9934     -47.3708 
4.72693e-05      10.8282      124.157 
-0.000109687      8.74687     -71.6070 
-6.31818e-05      13.7802     -46.6460 
3.19574e-05      9.94843      110.477 
7.94123e-05      8.90112     -64.5842 
-4.82420e-05      8.94234     -149.189 
3.21677e-05      4.06756      17.4555 
4.70024e-05      4.94297      41.8864 
-4.74489e-05      11.8804     -45.8189 
3.16076e-05      6.26847      66.2980 
-1.62206e-05      10.3361     -126.581 
-1.61952e-05      10.4099      168.474 
-1.62174e-05      11.2348      115.744 
-1.61940e-05      4.10508      132.629 
-4.74807e-05      9.68728      82.2898 
1.61638e-05      9.77898      157.895 
1.61621e-05      9.82146     -132.854 
3.16756e-05      9.41896     -48.1841 
6.35754e-05      10.4249     -28.2843 
-3.17366e-05      9.48437      173.339 
-1.61256e-05      10.1823     -18.4349 
4.74253e-05      10.2375      100.696 
1.61087e-05      9.08603     -106.762 
-4.72164e-05      1.67259     -117.784 
-9.40341e-05      5.00883      86.5645 
-1.60966e-05      12.9923      47.2446 
4.70960e-05      4.04824      17.5416 
6.26293e-05      13.0876     -38.7973 
-4.72181e-05      13.2810     -132.192 
-1.59892e-05      1.54340     -71.1070 
-6.24305e-05      12.9653     -47.3736 
-4.71059e-05      9.81624     -139.464 
1.59552e-05      3.12554     -135.778 
-3.13878e-05      10.9058      115.296 
3.15428e-05      12.8088     -50.1931 
-0.000126038      9.74691     -168.759 
4.67445e-05      6.20203      85.1903 
4.68594e-05      8.95335     -156.011 
-1.59170e-05      11.7947     -47.8158 
-3.13620e-05      12.2030      131.210 
4.68571e-05      10.9175     -52.1416 
-3.14199e-05      11.5980      130.034 
1.58864e-05      11.1863     -65.2675 
-1.58467e-05      11.5850     -46.1888 
-4.65688e-05      9.26879     -36.4005 
4.67951e-05      10.7535     -58.6159 
1.57563e-05      10.3003     -151.594 
1.57672e-05      11.7663     -55.5286 
4.65808e-05      11.2207      59.8255 
3.12525e-05      10.1339     -104.748 
1.57523e-05      8.92660     -156.077 
-1.56986e-05      9.12891      76.0540 
-6.36075e-05      11.0425     -137.641 
-3.10400e-05      10.1594      169.221 
3.11845e-05      11.7386     -55.5511 
1.56793e-05      9.88004      140.832 
4.61535e-05      3.11820      149.980 
3.10189e-05      5.91141     -82.4212 
3.09526e-05      10.1607     -89.4372 
3.09821e-05      11.2884      117.199 
3.08209e-05      13.0015     -48.1185 
1.55717e-05      10.1163     -120.011 
-3.09768e-05      11.0763      50.9365 
-1.55828e-05      10.2239      153.886 
1.55708e-05      10.2434     -25.3148 
1.55361e-05      13.9868     -134.826 
-3.08239e-05      5.14373     -21.6772 
-1.55145e-05      9.64428      1.66306 
-1.55024e-05      9.49794     -50.0414 
-1.55065e-05      10.1395      169.200 
3.07546e-05      12.9372      137.381 
1.54588e-05      9.84737      116.669 
1.54498e-05      13.7185      45.3546 
1.54527e-05      2.32154     -112.802 
3.06592e-05      10.1409      160.172 
-1.54732e-05      9.28562     -97.7981 
-1.54138e-05      8.95910     -149.253 
-1.54296e-05      12.3801     -133.234 
1.54227e-05      10.2642      143.397 
1.54041e-05      6.34660      131.679 
1.53742e-05      9.83525     -132.941 
-1.53536e-05      9.58813      66.9103 
-3.06396e-05      10.5528      39.6945 
-1.53451e-05      7.90487      125.940 
1.53407e-05      10.5438      70.8429 
1.53319e-05      3.11106     -135.518 
-1.53215e-05      12.6678      42.6330 
1.52988e-05      9.93706     -93.3464 
1.52921e-05      10.2907     -151.693 
-1.52662e-05      9.19810     -8.37799 
1.52627e-05      6.74769     -59.9422 
-1.52558e-05      8.73258      127.367 
1.52664e-05      8.73616      120.850 
-1.52568e-05      11.5825      130.099 
-6.26244e-05      11.3641     -143.374 
-1.52443e-05      10.9083     -112.193 
-1.52585e-05      10.6230     -69.0404 
-1.52690e-05      11.7811     -47.8888 
-1.52521e-05      8.35924      156.747 
1.52473e-05      10.1486     -104.613 
1.52629e-05      9.58589     -112.444 
1.52037e-05      9.88816      143.225 
-1.52275e-05      10.9321      69.2101 
-7.12059e-05      12.5527      137.129 
0.000100811      12.4123      143.055 
-0.000130492      11.2436      115.837 
-9.97652e-05      13.5479     -134.881 
0.000115217      12.8083      127.066 
-6.47320e-05      12.5384      137.069 
-1.70993e-05      13.5198     -134.879 
-6.40509e-05      12.1963      53.4685 
-1.69638e-05      12.2044      45.0673 
3.29883e-05      9.73381      157.916 
-6.43480e-05      10.1630     -80.3728 
-6.39606e-05      9.14372      76.2078 
6.34629e-05      8.41620     -126.790 
-7.86923e-05      12.4558      36.9065 
6.36975e-05      13.6664     -43.4582 
-4.75853e-05      13.8589     -132.485 
3.25197e-05      13.0301     -48.1116 
3.19788e-05      11.3160      143.192 
-3.23545e-05      11.0683      59.1262 
-4.72399e-05      11.8649     -146.204 
4.77421e-05      10.1225      160.134 
-3.20599e-05      9.88488     -115.528 
-3.11202e-05      12.7094      38.5494 
-6.17310e-05      8.07816     -38.0622 
3.11045e-05      9.87457      116.721 
1.57582e-05      9.63875     -108.135 
-1.57671e-05      11.3265     -138.938 
4.62054e-05      8.16765     -92.5275 
-3.11194e-05      6.90103      135.000 
-4.59401e-05      9.32810     -36.2808 
-3.09427e-05      8.31311      82.3958 
-1.55955e-05      11.0583      59.2129 
3.07374e-05      6.20376      85.0038 
1.55585e-05      6.77453     -111.113 
3.05678e-05      10.5293      42.8456 
-3.05752e-05      12.4863     -129.606 
-3.06444e-05      12.4686     -125.271 
1.55466e-05      10.1402     -89.6608 
3.04774e-05      11.3666     -122.937 
-3.04153e-05      9.04594     -109.636 
1.53957e-05      6.22265      135.523 
-1.53740e-05      11.0588      132.140 
-1.53381e-05      12.2622      134.271 
3.03423e-05      12.3489     -37.6310 
1.53154e-05      10.1457     -84.5719 
-1.53300e-05      11.3412     -139.003 
-3.03298e-05      11.0409      59.1591 
-1.52908e-05      7.87360      66.4938 
1.52808e-05      8.62952     -133.499 
-1.52450e-05      13.4774     -134.820 
1.52240e-05      12.9639      49.3778 
1.52077e-05      9.85886      140.432 
-1.51641e-05      9.91190     -115.583 
1.51356e-05      9.31190     -101.646 
1.51028e-05      12.9378      50.8990 
1.50791e-05      10.2729     -151.640 
-1.50778e-05      9.90342     -157.060 
1.50514e-05      7.89813      63.0454 
-1.49975e-05      9.50143      173.474 
1.49781e-05      10.8850      38.6610 
! Tentative model.
! Flux (Jy) Radius (mas)  Theta (deg)  Major FWHM (mas)  Axial ratio   Phi (deg) T \
! Freq (Hz)     SpecIndex
-1.58137e-05      12.1962      53.4683 
