! Center RA: 12 21 31.69052,  Dec: +28 13 58.50011 (2000.0)
! Established model.
! Flux (Jy) Radius (mas)  Theta (deg)  Major FWHM (mas)  Axial ratio   Phi (deg) T \
! Freq (Hz)     SpecIndex
 0.0788829      1.52028      90.0000 
 0.0532657      1.50002      90.0000 
0.000488096      1.56005      90.0000 
0.00310403      1.58044      89.2655 
0.00407128      1.53979      90.0000 
0.00168425      1.56019      89.2559 
0.00943460      1.59995      89.2744 
0.00999057      1.62057      88.5938 
 0.0136014      1.75977      89.3403 
0.00974818      1.47976      90.0000 
0.00352044      1.75966      90.0000 
 0.0239031      1.62021      89.2835 
 0.0169378      1.47990      89.2156 
0.00602260      1.78003      89.3478 
 0.0107721      1.77992      90.0000 
0.00533209      1.46039      89.2051 
0.00501286      1.46079      88.4399 
0.000235212      1.80197      87.4462 
0.00119294      1.92035      89.3955 
0.00115905      1.75977      90.6597 
0.000221795      1.80294      86.8268 
0.000208814      1.78396      86.1410 
0.00100421      1.93986      89.4016 
0.000926102      1.78544      85.4923 
9.92355e-05      1.92024      90.0000 
0.00234467      1.76011      91.2947 
0.00112845      1.93975      90.0000 
0.000404438      1.78708      84.8687 
0.000278721      1.47990      90.7844 
0.00184717      1.90093      88.1903 
0.000184262      1.60095      87.8511 
0.00106091      1.62120      87.8779 
0.000842970      1.78036      91.2800 
0.000653147      1.50016      90.7738 
0.000560446      1.92192      87.6057 
0.00127394      2.08017      90.5581 
7.63890e-05      1.62207      87.1627 
0.000708690      2.10043      90.5527 
0.00115966      1.64144      87.9041 
0.00225328      2.52011      90.9042 
0.00218469      1.92118      88.2094 
6.36950e-05      2.11994      90.5476 
0.000184579      2.14020      90.5424 
0.000122101      1.78003      90.6522 
0.000933093      2.04030      90.0000 
0.000820585      2.16046      90.5373 
5.83818e-05      1.74747      84.7521 
0.000823369      1.74944      84.0913 
0.000472344      2.54077      91.3539 
0.00232672      2.54037      90.8970 
0.000152065      1.74060      91.3092 
0.000145389      1.72035      91.3247 
0.000947501      2.17997      90.5325 
0.00134298      2.04040      90.5689 
9.22842e-05      1.70009      91.3405 
0.000240202      2.18024      91.0452 
4.56278e-05      1.60184      87.1269 
0.00102753      1.75164      83.4321 
0.000212819      1.74118      91.9758 
8.76602e-05      1.68059      91.3560 
0.000241500      1.60293      86.4304 
0.000122512      1.66033      91.3726 
0.000878062      4.00935      120.914 
0.000278751      1.76068      91.9539 
0.000329423      1.66094      92.0713 
0.000340051      2.05991      90.5635 
3.74800e-05      1.81980      90.6379 
7.28677e-05      1.94068      88.2274 
3.64053e-05      1.80062      91.2656 
0.000485564      1.86021      90.0000 
0.000347929      1.94141      87.6297 
0.000282152      1.58487      85.6554 
0.000415861      2.20023      90.5276 
0.000364373      1.66180      92.7694 
0.000156293      1.48030      91.5395 
0.000982036      3.00441      120.831 
0.000214028      1.44223      86.8086 
3.09778e-05      1.64231      92.8023 
0.00228115      1.75398      82.7990 
3.01828e-05      1.84006      90.6309 
0.00142671      3.62009      90.6295 
0.000377263      1.48098      92.3231 
0.000306241      1.87972      90.0000 
0.000968242      2.20049      91.0356 
0.000715094      1.44345      86.0353 
0.000316801      4.02674      120.766 
0.000102957      1.64338      93.4817 
7.91545e-05      1.94232      87.0547 
0.000383848      1.58653      84.9258 
0.00156902      2.91975      80.5328 
0.000961828      1.74200      92.6418 
0.00182059      1.53286      105.125 
7.19046e-05      1.96368      86.4947 
0.000180911      1.96093      91.7543 
0.000509787      1.48194      93.1058 
2.40197e-05      1.68203      92.7360 
0.000114081      4.04417      120.619 
0.000680025      1.72176      92.6729 
6.65082e-05      1.66285      93.4409 
0.000129637      2.46009      90.9263 
0.000167222      1.96503      85.9050 
0.000253560      2.54014      90.4570 
0.000425935      2.91649      80.9254 
8.44682e-05      4.06097      120.479 
0.000536248      1.96165      92.3458 
9.19439e-05      1.60597      95.0126 
0.000482501      4.08871      120.580 
0.00106686      2.56102      88.6569 
0.000465604      2.44058      90.9337 
0.000113608      2.56040      90.4534 
0.000195620      1.96652      85.3380 
0.000440333      2.79850      83.4409 
0.000548122      3.64034      90.6260 
0.000312385      1.48312      93.8584 
0.000104917      1.42480      85.1662 
0.000229301      2.56063      90.8899 
0.000579458      1.42665      84.3554 
0.000447677      1.56822      84.1503 
0.000627429      3.61992      90.3207 
0.000562902      2.98768      121.023 
0.000263517      1.60779      95.7053 
0.000207194      1.96827      84.7502 
0.000105249      3.99262      121.058 
8.97591e-05      1.46149      92.3541 
0.000184291      2.56102      91.3431 
0.000378264      1.46246      93.1472 
0.000161807      1.97022      84.1635 
0.000537328      4.11647      120.679 
0.000466268      2.81788      83.4863 
0.000146420      2.22046      91.5492 
0.000138617      2.56158      91.7962 
0.000293614      2.44100      91.4092 
0.000119242      1.97230      83.5996 
0.000415865      1.96255      92.9149 
6.34573e-05      1.83995      90.0000 
2.93217e-05      2.20095      91.5629 
0.000182301      3.97528      121.209 
4.10248e-05      1.48463      94.6386 
2.05837e-05      1.50881      104.575 
0.000191733      1.59054      96.5014 
0.000195099      2.84844      77.4319 
0.000325110      1.97467      83.0154 
8.66399e-05      1.51404      105.317 
0.000357873      1.46366      93.9098 
0.000181939      2.52775      94.5461 
3.13904e-05      2.58108      91.7826 
5.25721e-05      1.48921      104.771 
0.000217643      1.42870      83.5767 
0.000175446      1.53827      105.853 
0.000276087      2.85292      77.0348 
0.000159846      1.46471      104.236 
3.98249e-05      3.58032      89.3635 
4.55045e-05      2.79634      83.8381 
6.23739e-05      2.22110      92.0717 
8.85920e-05      3.52007      90.0000 
0.000168495      3.64018      90.3189 
0.000100493      2.81574      83.8807 
8.59969e-05      2.50830      94.5814 
-0.000201032      4.10683      118.185 
6.36829e-05      1.56315      106.338 
-8.74805e-05      2.10804      94.9008 
1.22818e-05      1.57042      83.4149 
-0.000612078      9.80096     -66.6776 
-0.00135839      7.59929     -47.0287 
-0.00101533      10.0942      79.9607 
0.000878214      11.9484      142.823 
-0.000287085      4.51751     -154.001 
0.00109191      6.44022      97.8554 
0.000689095      10.1292      123.564 
-0.00111025      12.3906      47.9432 
-7.27778e-05      8.17010      23.3651 
0.000510765      6.36454      57.7096 
0.000392768      9.76526      137.158 
-0.000252181      10.2096      68.5114 
0.000619126      4.59789      141.540 
0.000671061      9.83606      53.4343 
-0.000614241      12.7783     -50.0790 
-0.000387334      8.16208      23.2346 
-0.000481355      4.09906      149.177 
-0.000371519      10.2284      68.5530 
0.000420231      9.17917      25.2809 
-0.000251058      9.49796      147.381 
0.000720088      10.0102     -168.239 
-0.000362988      7.55851     -128.446 
-0.000353582      4.49931     -153.888 
-0.000182631      5.24600     -110.296 
0.000249174      3.06897      154.945 
-0.000185850      8.38603     -61.3572 
0.000403304      9.87373     -128.006 
-0.000299441      11.0216      140.301 
0.000237729      7.81800      141.751 
-0.000455130      8.93134      168.111 
-0.000182973      8.95677     -162.456 
-0.000403304      9.59735     -54.1587 
0.000345549      10.8033     -150.255 
0.000229457      8.70359      25.7388 
0.000229764      10.1145      128.094 
0.000119181      7.36515      112.178 
0.000137511      5.06979     -38.2744 
-0.000170099      3.04590      48.4555 
-0.000114049      9.81888     -66.7226 
0.000166047      6.52213      43.3823 
0.000277463      9.91704      51.3063 
-0.000274559      8.29371     -64.7310 
-0.000273807      10.8301      34.9211 
0.000218894      3.08665      155.098 
-0.000164701      3.89190      137.289 
-0.000272993      12.4945     -46.8812 
-0.000217095      9.48154      147.317 
-0.000161365      3.39609      50.4959 
-0.000323942      9.73488     -78.5064 
-0.000184205      8.93745     -162.417 
-0.000110410      9.45857     -74.1720 
0.000215289      9.33430      86.8064 
0.000305773      5.05390     -38.4167 
-0.000110878      6.41296     -34.5845 
-0.000162594      8.39576     -61.2359 
0.000160741      7.22794     -133.990 
-0.000162467      10.0349     -124.196 
-5.59989e-05      11.5653      48.7854 
-0.000162721      10.0274     -57.9560 
-0.000109278      11.0780      138.366 
0.000107904      10.5557      157.615 
-0.000160209      9.33542     -107.969 
-0.000159386      7.58697     -141.530 
0.000213308      2.54917     -160.285 
0.000304067      8.08106     -89.1487 
0.000607984      9.06048     -63.6620 
-0.000105777      11.9569     -138.391 
0.000105434      4.97240      103.252 
-0.000105892      11.0366      140.366 
-0.000105661      11.1398     -122.833 
0.000103457      8.51480     -40.2387 
-5.28780e-05      10.5697     -17.5101 
-5.27886e-05      10.6584     -130.205 
0.000102981      10.4144     -50.5317 
-5.23608e-05      11.0893     -145.507 
-0.000322201      11.8592      40.4861 
5.20706e-05      9.13976     -40.2079 
5.19280e-05      10.3917     -100.421 
-5.16293e-05      11.0931      138.436 
5.15692e-05      8.64236      21.8744 
-5.14997e-05      4.10055    -0.838824 
0.000101555      12.9421      44.0603 
5.09739e-05      9.06949     -63.5473 
5.07594e-05      6.43749      97.6767 
5.06998e-05      7.83392      141.842 
-5.06500e-05      10.1162      116.413 
-5.05241e-05      12.6494     -136.793 
5.04102e-05      6.07063      132.996 
-5.02617e-05      2.84368     -2.82843 
0.000480525      5.38901      78.4413 
0.000669518      8.50864      38.7024 
-0.000276252      6.69058     -38.4470 
0.000357673      13.3195     -130.556 
0.000167142      10.9232     -113.984 
-0.000196890      7.45939      153.226 
-0.000149832      7.39595      145.023 
-0.000682852      11.9982     -130.673 
0.000564952      7.28124     -89.0552 
0.000154637      4.24308     -134.240 
-0.000105977      5.57852      51.4004 
0.000243084      8.43748     -171.273 
-0.000385686      11.7937     -146.904 
0.000190762      5.78506     -37.9773 
0.000323756      6.23577      115.251 
-9.70274e-05      8.52429     -10.5453 
-5.18622e-05      1.01635      169.794 
0.000216266      9.08849      177.478 
9.28753e-05      10.0289     -68.9613 
9.86830e-05      11.3923     -131.440 
0.000186462      10.3210      121.287 
9.51037e-05      11.1357      60.1646 
0.000215296      10.9150     -113.886 
0.000294387      8.52019     -33.3192 
-0.000525596      7.95968      53.2749 
-4.96358e-05      10.9183      147.415 
0.000585387      10.5902      73.9961 
-4.93594e-05      3.82280      92.1036 
-9.63078e-05      3.59417      9.93037 
9.27455e-05      8.13230     -123.262 
4.89524e-05      8.49598      38.5958 
-0.000128803      7.09119      86.7667 
4.77340e-05      6.24412      115.413 
4.75781e-05      7.12471      141.040 
-0.000211386      10.1833      160.853 
-0.000130259      5.59071      51.2441 
-0.000543245      10.0406     -124.449 
-9.12834e-05      6.77473     -59.8765 
-0.000176023      12.9982     -39.5680 
-0.000247131      5.23414     -25.0918 
-4.61960e-05      11.1018      35.8366 
-0.000132251      10.6783     -129.831 
0.000646793      10.8853     -137.458 
0.000509503      6.33659      57.7666 
0.000246489      11.3616      55.4724 
-4.55458e-05      3.58402     -37.0690 
0.000200022      8.51124      38.5139 
8.57565e-05      10.8438     -117.936 
-4.53729e-05      7.78757     -140.631 
0.000275179      9.04382     -126.820 
0.000265337      11.4057     -131.517 
-0.000255475      6.63012     -17.0117 
-8.66062e-05      9.63850     -120.556 
-0.000143803      11.0854      35.8979 
-4.36732e-05      10.4753     -20.6848 
-0.000231195      9.27384      51.1288 
0.000122543      12.4669      141.972 
0.000368449      10.3619     -155.118 
-4.26719e-05      3.57422      9.98638 
-8.15231e-05      7.75953     -140.647 
0.000187540      8.46272      54.6188 
0.000191043      10.3559     -69.1854 
-4.21421e-05      10.8241      34.6871 
-8.17579e-05      11.0740      35.8161 
8.10659e-05      11.3731      55.3883 
0.000177899      12.0978      48.3517 
4.10280e-05      1.70833     -25.6646 
0.000282337      10.3105      121.191 
-0.000217799      3.46009     -90.3355 
-7.05950e-05      9.06698      94.4285 
0.000292941      8.06175     -50.9387 
-4.04148e-05      3.54285      30.9055 
-0.000345335      8.80652     -160.083 
-4.01485e-05      10.4822     -20.7846 
-0.000547674      7.90561      55.3038 
-0.000174600      9.64882     -120.660 
3.96676e-05      8.19169     -162.669 
0.000958828      11.5257     -119.412 
-0.000161675      10.8147      62.5797 
-0.000321996      12.7399     -39.7140 
-0.000922956      10.2324      67.5970 
-0.000199966      10.6628     -129.901 
-0.000174442      12.9826     -39.6249 
0.000303008      4.85075      21.2698 
0.000430705      12.7351     -38.1130 
0.000409152      10.5125     -112.956 
-0.000139997      11.7442     -143.169 
-0.000169125      7.58728     -140.562 
-0.000142353      8.85685     -62.2756 
-7.17627e-05      9.06544      94.3009 
-0.000103888      9.50684     -54.5060 
0.000138075      8.30013      100.554 
0.000316981      8.18568     -162.804 
-3.76324e-05      11.0062      43.5248 
-3.75018e-05      11.0582      35.8753 
-0.000201089      10.6386      67.0991 
-7.09353e-05      9.53580      56.8126 
-0.000295907      3.68382      142.948 
3.69293e-05      6.89145     -42.9968 
6.96248e-05      10.1517      128.361 
-9.87348e-05      5.90339      51.1866 
7.09808e-05      9.65440      113.698 
0.000135328      8.08579      116.120 
3.64232e-05      10.0216     -69.0694 
3.64228e-05      6.22715      115.083 
0.000255685      11.5008     -151.428 
-0.000104502      11.0204      43.4550 
0.000306264      11.4609     -59.9466 
3.58118e-05     0.724535      129.410 
0.000134880      12.1799     -136.398 
3.54414e-05      11.3443      148.189 
-0.000212198      9.34579      51.9523 
-0.000363625      10.5743      158.821 
-0.000129114      9.58120     -83.5290 
-0.000193212      11.3567      44.3575 
0.000100196      10.3353     -124.675 
-0.000237933      12.4569     -125.195 
3.44470e-05      10.2653     -68.0345 
-0.000513300      8.85352      168.005 
-6.67778e-05      8.70183     -94.0846 
0.000217328      12.4545      142.045 
9.68494e-05      11.0875     -45.0000 
-0.000233328      11.0554      145.763 
0.000313189      12.2723     -47.4433 
-0.000212870      9.63952     -162.242 
9.50902e-05      8.66778      25.8530 
6.40007e-05      7.64071      85.7985 
3.29819e-05      11.5179     -151.475 
3.28688e-05      10.3792     -100.662 
-0.000124889      11.0351      43.3826 
0.000798651      9.75169      83.0478 
0.000122267      7.85457      33.3667 
-0.000149830      9.86036      70.9404 
0.000301409      10.4099      69.6513 
-0.000142410      10.2024      160.891 
3.22315e-05      7.51668     -42.5199 
0.000395823      8.03383     -50.9633 
-9.02746e-05      9.28903      51.2043 
0.000422271      8.40785      4.63794 
-3.15669e-05      6.62444     -16.8503 
8.90612e-05      10.8965     -113.930 
3.15186e-05      4.26797     -127.190 
-3.13770e-05      12.4686     -125.271 
-0.000255317      11.9720     -138.456 
-0.000167583      8.70330     -94.2176 
-3.10214e-05      10.6949     -146.130 
3.09157e-05      10.9015     -65.5025 
3.08072e-05      8.03996     -137.417 
-3.07338e-05      7.79466      140.101 
6.07186e-05      14.1140     -134.541 
3.06127e-05      10.3238     -124.583 
3.04124e-05      12.1653     -136.332 
3.04670e-05      7.86573      33.4900 
-3.03995e-05      8.25227      120.915 
-0.000116880      9.50009      90.3621 
0.000113026      8.45100      54.7308 
0.000190661      3.91636     -95.2769 
3.01669e-05      7.28294     -105.447 
0.000208358      10.9096     -65.4093 
-8.37701e-05      6.60505     -16.9013 
-8.36063e-05      3.46003     -90.0000 
-0.000440300      10.6710      40.2853 
5.66569e-05      10.1391      128.271 
-0.000111087      9.16489      88.1232 
2.96151e-05      5.16254     -84.6623 
0.000722539      14.1282     -134.600 
-0.000203485      10.6781     -146.070 
0.000134292      8.91165     -96.1825 
5.58246e-05      7.54479     -42.5251 
0.000181370      11.5943     -141.232 
8.06465e-05      7.23145      129.501 
-8.48726e-05      8.89890     -51.6631 
8.42435e-05      12.4385      141.988 
0.000283573      9.74926      83.1660 
5.58181e-05      10.0840     -3.98112 
0.000134855      11.7681     -32.3686 
-0.000138099      11.0493      43.3131 
0.000235592      5.14051     -84.8661 
5.67973e-05      10.2726      121.060 
0.000136980      12.6546      138.652 
-0.000527362      10.2646      81.8213 
0.000268842      11.8804      45.8189 
0.000378293      7.27777     -105.299 
-2.87292e-05      3.10057     -123.690 
-2.85672e-05      5.05120      83.6372 
-5.48398e-05      7.89728      140.339 
-2.85836e-05      11.0696      35.9571 
-0.000132685      11.3712      44.2861 
-2.83063e-05      5.35073      71.0213 
-0.000105351      11.0954     -131.419 
2.82775e-05      12.1518     -136.399 
-0.000223347      11.1562     -122.778 
-2.82987e-05      8.26270      121.035 
5.38017e-05      7.14544      46.9277 
5.46178e-05      8.05489     -137.514 
-5.48590e-05      8.78818     -160.039 
5.44920e-05      10.3077     -124.645 
7.99100e-05      10.5958      73.8907 
-7.78831e-05      12.9802     -137.434 
-5.22378e-05      9.57902     -83.6449 
8.15259e-05      11.4512      119.969 
5.27516e-05      10.4237      70.7316 
2.78228e-05      9.85297      95.9407 
-5.44255e-05      8.23489      120.987 
-0.000157231      9.42694      140.941 
-0.000130805      10.0521     -124.544 
0.000176060      7.87150      33.2856 
0.000127820      10.7810     -50.3430 
-5.37658e-05      9.50024      90.4842 
-0.000223216      7.14630      153.220 
5.25225e-05      10.1539      73.9947 
-0.000325364      8.53980     -10.3877 
0.000102083      10.2250      120.828 
5.07261e-05      11.4186     -131.590 
2.72032e-05      10.8189      65.1893 
0.000125639      9.56533      94.1974 
-5.26541e-05      8.13533     -101.201 
-7.84337e-05      3.70001      143.137 
2.69460e-05      10.2719     -164.531 
2.69214e-05      10.3114      41.8555 
-2.67812e-05      9.09819     -86.3447 
-5.29695e-05      11.8575      40.6217 
7.82206e-05      12.3766     -44.0174 
0.000125475      10.8107      65.2832 
-2.64986e-05      12.0663      122.822 
0.000101264      10.1656     -32.2201 
0.000282314      8.08078     -89.2924 
-0.000164968      9.46449      147.251 
0.000250888      12.1377     -136.335 
0.000122915      9.15524     -40.1261 
-0.000207842      9.63150      61.2025 
-5.09403e-05      2.88223      15.2918 
-0.000123553      9.43376     -74.2524 
-4.99323e-05      8.27306      86.8127 
-0.000340037      9.27933     -103.587 
0.000123548      11.4778      120.005 
2.59943e-05      10.4120      146.675 
-5.08372e-05      3.36135      56.3986 
0.000562504      9.61378     -86.8993 
0.000125619      10.7298      21.5447 
-9.96658e-05      11.5287      147.468 
-0.000168486      8.24534      121.108 
0.000311980      11.6841      60.0100 
-0.000173581      10.5169      106.574 
-0.000121701      11.8443      40.5474 
-2.56534e-05      9.65196     -162.392 
-0.000120904      12.0369     -132.036 
-4.91984e-05      6.19882      85.5566 
-7.29745e-05      11.2176      124.541 
-2.54064e-05      9.53449     -54.4749 
-0.000312214      8.72244     -83.1519 
7.45205e-05      12.6698      138.712 
0.000121023      9.78662     -135.329 
-4.97173e-05      8.82950      168.107 
-0.000121139      11.0641      43.2412 
9.28200e-05      6.12744     -119.742 
2.52596e-05      11.7504     -128.781 
0.000304825      14.3264     -135.170 
-2.51245e-05      11.3561      37.4151 
2.50443e-05      8.05901      116.059 
-0.000235965      8.13142     -101.061 
0.000179229      12.1112      48.2801 
2.49153e-05      11.2795      41.4075 
-0.000230883      12.2204      44.0695 
-0.000104160      9.46731      48.7662 
0.000186519      12.3620     -44.0827 
-9.46735e-05      9.52068      90.6006 
2.45092e-05      8.50593      102.632 
0.000267872      10.6573     -71.0547 
-9.41605e-05      12.5217     -46.7484 
-0.000265143      9.16555      88.0013 
2.44307e-05      13.2477     -48.4880 
-0.000233233      10.5112      106.468 
-2.44642e-05      4.38884     -42.4154 
0.000312428      11.2140      65.4466 
0.000503948      11.4681      119.920 
-0.000396491      9.11602     -15.1356 
0.000116968      13.2753     -48.4808 
-2.41288e-05      7.83875      140.177 
0.000141522      10.7110      21.5845 
-0.000652047      10.2351     -104.252 
-9.35770e-05      2.88743      15.6652 
-2.41052e-05      3.37824      56.5888 
2.40756e-05      7.15929      46.8093 
-7.01163e-05      13.1731      48.2003 
0.000136330      3.99603     -111.434 
-2.38750e-05      10.6446      67.5768 
-9.27742e-05      11.9486      56.8129 
-4.58866e-05      9.59841     -83.6578 
-4.63029e-05      10.0636     -124.639 
0.000160298      12.9561      44.0003 
0.000496663      12.9970     -134.565 
-9.17977e-05      10.0202      149.800 
-9.07444e-05      9.41121      140.864 
6.96800e-05      12.6832      138.643 
2.35650e-05      5.45798     -71.6323 
0.000241768      11.0772     -146.340 
-0.000219755      7.77970      140.008 
0.000110095      10.1344      73.9631 
8.89603e-05      7.61014      56.1438 
-4.60794e-05      12.6419     -127.866 
-2.33949e-05      9.44746      147.185 
0.000111432      9.81474     -135.331 
2.34118e-05      4.14321     -59.2267 
0.000172827      10.1548     -32.1234 
6.77169e-05      7.57287     -42.5383 
2.32945e-05      10.3542      141.116 
-9.39682e-05      10.2275      160.819 
-2.31764e-05      11.0393      145.706 
2.32075e-05      13.1496      129.816 
-4.59788e-05      12.7113     -39.7021 
8.90435e-05      14.2552      45.0000 
2.31008e-05      10.1809     -37.6579 
2.30578e-05      10.4137     -141.236 
-2.30514e-05      11.1083     -131.495 
4.54302e-05      5.13874     -85.0911 
-2.30610e-05      9.54628     -54.3759 
0.000178088      13.1366      129.749 
-4.53830e-05      9.40021      47.5882 
-6.66953e-05      10.6369      67.6777 
6.72708e-05      10.8285      65.3264 
0.000346939      10.2489     -174.399 
0.000265413      10.6921      21.6244 
6.62261e-05      10.8332     -149.979 
2.26484e-05      10.2629     -120.313 
0.000257700      9.66189      138.356 
0.000728925      14.1419     -134.656 
-6.64104e-05      11.2287      124.623 
-2.26307e-05      11.7041     -126.735 
-0.000495198      10.4975      106.606 
-6.64368e-05      11.2678      34.7357 
-0.000110706      11.0788      43.1694 
0.000236347      11.5785     -141.169 
-4.47161e-05      2.85322      159.911 
-0.000250993      7.89410      55.4247 
-4.39765e-05      9.73157     -63.9072 
8.79426e-05      12.6680      138.583 
2.24234e-05      5.47722     -71.6991 
-0.000278441      11.9593      56.7347 
0.000122906      9.37899      121.928 
-2.24644e-05      8.80968      168.079 
4.39792e-05      8.07587      45.7040 
0.000214417      13.3039     -48.4733 
2.23074e-05      11.2805      139.676 
-2.22864e-05      9.41499     -74.2202 
-2.22862e-05      8.52061     -10.4114 
0.000129489      10.6654      156.225 
-2.22620e-05      12.6963     -39.7583 
4.43053e-05      9.82958     -77.0660 
-4.38346e-05      10.5932      158.861 
-8.55838e-05      4.66443     -84.0904 
-2.21631e-05      3.71564      143.318 
-8.61264e-05      13.1597      48.2661 
-0.000213059      5.48533      92.5090 
4.39567e-05      10.6507     -71.1578 
2.20468e-05      9.07203     -97.2179 
-6.40584e-05      10.0027      149.742 
2.19978e-05      11.1266      39.3816 
2.20213e-05      8.07573      45.9035 
-0.000129828      12.6678     -39.7465 
-0.000129533      12.6259     -127.922 
0.000286475      9.84447     -36.2419 
-0.000255404      12.2345      44.1377 
0.000320550      14.2977     -135.170 
0.000128591      6.06881      16.4631 
-0.000404362      9.87611      105.865 
-0.000129117      13.0104      45.0000 
0.000214656      9.83397     -76.9552 
6.43030e-05      9.17017     -40.0475 
8.53109e-05      9.07460     -97.3448 
0.000117864      10.5046     -112.854 
0.000233200      10.8200      65.4238 
0.000106970      12.3475     -44.1481 
0.000118717      7.18501     -145.205 
2.17477e-05      12.4420      142.119 
6.43202e-05      12.9567      43.8737 
-6.41592e-05      10.0896     -103.759 
-0.000213068      10.4917      106.500 
0.000107088      11.5523     -119.449 
-2.16563e-05      9.40950     -74.3389 
2.16374e-05      9.88970     -127.933 
0.000190778      13.8031     -45.4691 
-0.000191522      10.2914      77.3135 
6.42557e-05      9.61489     -86.7787 
-2.16787e-05      9.17451      101.823 
-2.15900e-05      11.1069      43.1767 
6.40648e-05      10.6390     -156.277 
-2.15145e-05      7.85474     -3.50532 
-0.000127168      11.2181     -133.629 
-0.000169554      4.10909      148.943 
-8.47348e-05      12.5498     -46.7420 
0.000102807      3.98508     -111.797 
0.000212111      10.6740      21.6630 
0.000275270      10.2691     -174.410 
-0.000148108      12.5201      53.3142 
2.13852e-05      12.6657      138.456 
0.000243876      5.32039     -90.4283 
-6.39037e-05      11.1217      43.1053 
6.35719e-05      11.8654     -45.2050 
-0.000147964      10.2882      83.4120 
-0.000142017      8.97504      107.909 
0.000105555      12.6792      138.388 
0.000105528      10.6654     -66.2250 
-0.000106531      4.64503     -84.0656 
4.23866e-05      8.08984      45.8005 
-0.000105935      10.0944     -103.871 
0.000232046      13.1242      129.683 
2.12593e-05      11.2875     -116.293 
7.51751e-05      5.22919     -14.6205 
-6.32943e-05      10.5453     -103.825 
2.12726e-05      13.0160      38.2600 
0.000147673      13.1859     -46.5980 
-4.24078e-05      14.0335     -136.501 
0.000173902      10.8265     -149.834 
-2.12289e-05      9.54070      90.8427 
-7.94742e-05      6.10183     -4.88886 
-0.000316054      13.4501      45.6623 
-0.000134660      7.76419      139.912 
0.000189869      13.3607     -130.629 
-4.22670e-05      12.6522     -39.8051 
0.000168350      11.2409      65.3956 
0.000295429      11.3056     -116.247 
-0.000105403      8.26092     -124.845 
-0.000147769      12.6384     -127.995 
-0.000252941      11.1646      43.0418 
-8.41913e-05      13.1462      48.3320 
2.11226e-05      6.14438     -119.652 
0.000210731      11.5427     -119.365 
2.11114e-05      7.59929      56.2660 
4.20696e-05      14.1042     -133.562 
0.000126362      12.9421      43.9358 
-4.21641e-05      11.2920      58.6190 
0.000231938      14.2833     -135.113 
-6.31674e-05      12.3005      37.3376 
0.000213240      8.51022      102.761 
8.42913e-05      10.0571      131.776 
8.49186e-05      3.99265     -112.067 
-6.30612e-05      9.09718     -15.1677 
-0.000168361      10.2672      77.3990 
-4.21258e-05      9.45354      147.354 
-0.000168651      14.2849     -44.3190 
-0.000189646      14.0482     -136.558 
-8.42378e-05      12.0009     -130.540 
8.40622e-05      9.83856     -76.8403 
4.03943e-05      4.58809      23.1014 
6.30986e-05      6.69932     -78.2898 
-4.20278e-05      9.54101      90.9599 
4.21322e-05      12.3756     -44.1475 
4.20937e-05      10.6994      21.7216 
-0.000126290      12.6247     -39.7938 
4.20690e-05      12.4967     -52.5438 
6.31049e-05      11.8819     -59.3341 
2.10096e-05      10.6205     -156.233 
-6.31193e-05      13.1200      49.3884 
-4.20416e-05      7.15033      24.6286 
-0.000147738      11.0349      120.375 
-8.43568e-05      10.2859      83.5241 
8.42397e-05      12.1149     -39.7102 
8.42610e-05      10.3364      10.5921 
-2.09507e-05      8.53630     -10.2589 
-6.31083e-05      12.7122      49.5942 
0.000105316      10.6812      21.7603 
-0.000105391      7.61686      157.948 
6.32815e-05      11.2828     -115.065 
2.10311e-05      7.54799     -163.053 
-8.42954e-05      10.5501     -103.931 
6.32463e-05      11.2727      39.1673 
6.31549e-05      10.1011     -117.987 
-8.43285e-05      10.2474      81.6972 
2.09803e-05      7.58658     -42.6511 
-2.10167e-05      9.01077     -15.5790 
-2.10197e-05      7.95976      123.729 
-6.31422e-05      11.3320      54.6282 
-8.44517e-05      13.1332      48.3956 
8.42996e-05      12.3610     -44.2130 
-2.10555e-05      12.0788     -134.195 
-2.10644e-05      11.2718     -135.359 
-2.10172e-05      11.9331      31.0781 
-6.32792e-05      13.0514      48.6666 
2.10178e-05      10.6941      136.211 
-0.000103169      4.09174      148.797 
0.000105575      13.1719     -46.6620 
-2.10179e-05      12.9516     -137.440 
4.21887e-05      14.0907     -133.505 
-6.33639e-05      9.56203      91.2006 
-2.10614e-05      13.0648      48.5998 
-6.32194e-05      13.1802     -129.706 
-0.000153459      10.1204      130.110 
-0.000189947      10.4846      106.742 
2.11200e-05      11.0884     -146.253 
6.32958e-05      9.84319     -76.7255 
-2.10742e-05      10.2674      81.7136 
-6.33193e-05      8.99198     -15.6124 
-4.21145e-05      7.94291      123.810 
4.23137e-05      11.6545      56.3376 
2.11371e-05      10.5687      161.804 
2.11031e-05      11.8368     -45.2055 
-6.35466e-05      13.4646      45.7225 
2.10564e-05      10.6654      136.214 
6.33996e-05      11.2325      65.4895 
-2.11124e-05      9.98520      149.683 
-2.10904e-05      12.0647     -134.126 
-2.10822e-05      8.70233     -83.1360 
-4.24227e-05      10.0748     -103.899 
-6.35091e-05      10.2628      77.5094 
2.11414e-05      9.40305     -122.843 
-4.22336e-05      11.4817     -58.0280 
2.10670e-05      10.5773      21.5214 
4.22719e-05      10.0990      86.4813 
2.11703e-05      12.7067     -38.0976 
-2.12176e-05      7.28159     -6.14654 
2.11749e-05      10.3164      10.6127 
-2.11889e-05      10.2401      67.4922 
-2.11911e-05      10.7734      37.9131 
2.11103e-05      9.04233     -63.6051 
-2.11316e-05      12.7628     -50.0206 
-2.11683e-05      13.0111     -39.6368 
2.12160e-05      11.3012      39.1821 
-2.11690e-05      12.5322      53.2399 
-9.00902e-05      7.27953     -5.99386 
0.000106643      6.72329     -78.1558 
-0.000141927      9.57411     -54.3517 
0.000181176      9.46312     -26.0794 
-0.000162330      9.47061      147.421 
0.000161358      11.1810      137.320 
4.48960e-05      9.36829      121.822 
4.33711e-05      12.8975      135.252 
4.18221e-05      10.0436      131.690 
-0.000190657      9.52623      177.955 
6.06619e-05      7.58806      56.3932 
-0.000139397      10.3369      159.146 
-4.13939e-05      7.93803      124.010 
4.23846e-05      10.8090     -149.780 
-9.60664e-05      11.2881     -53.2101 
0.000135850      3.98157     -112.447 
-3.94286e-05      7.54971     -154.250 
-0.000246458      11.2402      124.707 
5.95954e-05      12.1725      138.664 
0.000172391      10.1244     -3.96520 
4.03852e-05      9.21667      104.580 
5.74514e-05      9.34244      13.6210 
-2.05089e-05      9.50598      177.951 
-2.04430e-05      9.49391     -13.2740 
4.02979e-05      10.9161      52.6677 
-7.58992e-05      10.7894      137.856 
-2.02633e-05      11.6766      145.820 
-3.97529e-05      3.76024      143.439 
3.97146e-05      12.6232     -40.6294 
9.38260e-05      11.9391      138.055 
-7.50806e-05      12.8591      46.4494 
-3.90253e-05      5.52429     -127.200 
2.00642e-05      1.20053     -1.89841 
-5.59743e-05      10.7354      34.7564 
1.96280e-05      9.40226      150.710 
5.62965e-05      5.48361     -71.4981 
1.94619e-05      10.7204      129.094 
-9.14805e-05      11.2988      115.478 
-7.25149e-05      12.8589      46.3241 
-3.66307e-05      7.56796     -154.317 
9.06732e-05      7.91763      131.823 
-3.81037e-05      10.7501      56.0726 
0.000108768      10.9129      52.5210 
1.91539e-05      7.56666     -163.096 
0.000109459      12.6210     -40.7591 
1.90405e-05      9.19270      104.489 
-0.000107365      8.96883      107.786 
-8.98501e-05      10.8626     -19.8019 
-1.89476e-05      3.22064     -16.9742 
3.69760e-05      9.30350      85.9299 
-1.88497e-05      7.94457     -83.9329 
1.87905e-05      7.99307     -51.0932 
1.87590e-05      5.90393      117.435 
-3.68082e-05      8.08512     -77.7181 
1.86763e-05      8.10369      45.5027 
7.24740e-05      10.7908     -50.1118 
3.65089e-05      7.93116      131.932 
-3.60713e-05      13.9584     -134.595 
3.67671e-05      12.9288      42.0547 
-3.62241e-05      3.73190      143.503 
-1.84565e-05      10.3105      19.4886 
5.34110e-05      10.3127     -124.494 
0.000124870      13.3853      131.789 
3.61558e-05      4.60604      23.0062 
1.82907e-05      7.57236     -162.955 
1.83169e-05      8.88005      24.1999 
-5.36972e-05      10.7339      56.0144 
1.81852e-05      10.6514      136.293 
1.82659e-05      10.8553     -61.4986 
3.56673e-05      5.89462      117.260 
1.81747e-05      12.1596      138.733 
5.32288e-05      10.0167      20.2079 
-1.81169e-05      13.0521     -39.7145 
-1.81404e-05      11.7758      141.065 
1.80124e-05      9.38460      150.649 
-3.58302e-05      11.1778     -150.408 
-1.79435e-05      10.6555      40.3558 
-1.79303e-05      10.0417      61.4432 
1.78972e-05      10.2967     -124.555 
7.01370e-05      7.48060      141.079 
-1.78567e-05      10.7205     -52.8085 
8.91566e-05      10.3193     -164.833 
3.50840e-05      11.0222      123.228 
-3.49114e-05      13.0241     -39.7054 
5.30297e-05      10.1273     -32.0909 
3.52710e-05      9.80104     -135.413 
1.76922e-05      11.2524      139.685 
1.76547e-05      11.5633     -141.109 
-5.41569e-05      10.3401     -32.9208 
-1.75463e-05      8.06533     -77.6874 
1.75915e-05      9.52711      165.905 
3.54945e-05      7.59981     -42.7593 
-1.75393e-05      12.2126     -127.413 
3.75179e-05      7.29731     -105.257 
-7.14003e-05      8.87260      168.031 
5.37128e-05      11.2097      137.314 
3.57935e-05      13.1782     -48.5689 
-1.82515e-05      10.2641     -14.4447 
-3.52400e-05      9.01039      100.489 
-5.32841e-05      2.35739      14.7528 
-1.80247e-05      10.0239      61.3878 
-3.53916e-05      8.56997     -2.81055 
3.50746e-05      12.4140      142.133 
5.23838e-05      12.7511     -38.0569 
-1.76486e-05      11.2402     -55.2925 
1.76581e-05      5.24879     -14.5647 
1.75819e-05      10.0716      131.702 
-1.74705e-05      10.3172      19.5947 
1.74497e-05      10.7778     -50.1944 
-1.73776e-05      10.8120     -146.926 
-1.73385e-05      9.49858     -13.3929 
-1.73633e-05      7.18377      53.0331 
-1.71900e-05      3.74399      143.254 
1.71770e-05      12.6057     -40.8192 
1.72019e-05      10.3141     -164.942 
! Tentative model.
! Flux (Jy) Radius (mas)  Theta (deg)  Major FWHM (mas)  Axial ratio   Phi (deg) T \
! Freq (Hz)     SpecIndex
-1.83870e-05      10.0240      61.3895 
