! Center RA: 12 21 31.69052,  Dec: +28 13 58.50019 (2000.0)
! Established model.
! Flux (Jy) Radius (mas)  Theta (deg)  Major FWHM (mas)  Axial ratio   Phi (deg) T \
! Freq (Hz)     SpecIndex
 0.0454232      0.00000      0.00000 
 0.0484667    0.0300155     -90.0000 
 0.0229700    0.0300155      180.000 
0.00336086    0.0424483      135.000 
 0.0121344    0.0671167      116.565 
0.00356321    0.0671167     -63.4349 
 0.0122992    0.0600310     -90.0000 
 0.0203053    0.0949173      108.435 
 0.0124644    0.0671167     -116.565 
0.00406475     0.123757      104.036 
0.000193860     0.153050      101.310 
0.000911373     0.182577      99.4623 
0.000479725    0.0671167     -153.435 
0.00614592     0.212241      98.1301 
0.00115082     0.108222      123.690 
0.000263750    0.0949173     -161.565 
0.000660250     0.120062      180.000 
0.00452515     0.240124      90.0000 
0.00167024     0.108222     -56.3099 
0.00118411     0.123757     -165.964 
0.000675566     0.150077      180.000 
0.00172386     0.469817      116.565 
0.000348651     0.241993      97.1250 
0.000981162     0.127345     -45.0000 
0.000410625     0.153050     -168.690 
0.000737960    0.0600310      0.00000 
0.00155556    0.0424483      45.0000 
0.000686683     0.108222     -33.6901 
0.00186293     0.443173      118.301 
0.000295985     0.134233     -26.5651 
0.00150896     0.780402      112.620 
0.00129295     0.150077     -36.8699 
0.000403143    0.0671167      26.5651 
0.00100555     0.553458      102.529 
0.000340026     0.886169      113.982 
0.000505974     0.180093      180.000 
0.000322891    0.0949173      18.4349 
0.000226280     0.913675      66.7829 
0.000806003      2.16283      113.710 
0.000759080     0.658291      46.8476 
0.000687823      3.39026      97.6315 
0.000335043      3.12011      90.0000 
0.000855957      1.24304      109.759 
0.000515496     0.941334      67.5031 
0.000400496     0.483985      119.745 
0.00115264      3.12025      89.4488 
0.000867148     0.134233     -116.565 
0.000101873     0.560735      105.524 
0.000915906     0.792431      114.624 
0.000834472      2.15094      112.978 
0.000357872     0.902264      111.465 
0.00105839      13.0582      115.151 
0.000787514     0.175019     -30.9638 
0.000374059    0.0848966      45.0000 
0.000902883      1.21483      110.237 
0.000278415     0.969133      68.1821 
0.000154202      3.66220      108.134 
0.00103570      1.64433      128.329 
0.000271137      3.36051      97.6995 
0.000912308      3.69073      107.989 
0.000414623      1.83876      118.228 
0.000848943      2.88014      89.4029 
0.000510071      2.07728      100.827 
0.000665522      1.22554      111.554 
0.000141933     0.123757      14.0362 
0.000458702     0.499557      122.735 
0.000702573      7.41969      107.407 
0.000561743     0.210108      180.000 
0.000609956      3.15027      89.4541 
0.000790816     0.958383      69.8483 
0.000429826     0.582795      101.889 
0.000670273      7.46011      115.743 
0.000217921      2.08313      101.638 
7.31883e-05      13.0686      115.859 
0.000218754      4.03883      116.946 
0.000178559      5.63804      114.518 
0.000321010      7.59913      107.932 
0.000272380      13.0817      115.977 
0.000647873      3.43341      95.0153 
0.000645005      3.36467      98.2060 
0.000579361      10.2374      109.339 
0.000673283      8.40200      106.169 
0.000200846     0.636724      45.0000 
0.000622709      9.84468      112.578 
0.000180459      13.0454      115.032 
0.000286651      6.45409      110.123 
0.000276453      8.27855      111.917 
0.000242578      5.33170      111.803 
0.000550056      8.61358      116.920 
7.74643e-05     0.150077     -126.870 
0.000142404      4.20176      118.584 
0.000172110      5.62333      114.924 
0.000543232      1.09019      82.0874 
0.000115416      2.38093      109.114 
0.000422407      4.49685      104.683 
0.000281973      6.06779      114.537 
0.000213285      9.13639      112.188 
1.95950e-05      1.92613      108.160 
7.39637e-05      3.00740      94.0062 
0.000235038      3.93585      113.828 
5.58808e-05      2.11741      110.734 
0.000125114      12.9745      115.913 
0.000580231      2.34048      91.4697 
0.000280302     0.615866      46.9749 
7.24207e-05      3.60138      100.565 
9.14128e-05      8.38264      104.929 
0.000201696      8.26739      111.724 
0.000524578      10.1358      112.996 
3.66455e-05      9.89154      110.415 
0.000571435      3.27514      86.8478 
0.000336262     0.576579      128.660 
0.000119242     0.153050     -101.310 
5.28366e-05     0.930262      69.2114 
0.000219232     0.765248      115.560 
0.000335428      2.41919      109.553 
6.86678e-05      9.88111      110.252 
6.86382e-05      8.37515      104.736 
0.000131157      11.1715      118.905 
1.74147e-05     0.189835     -18.4349 
0.000437618      8.89653      117.514 
9.23271e-05      2.10723      109.990 
0.000278590      2.04230      100.158 
1.73173e-05     0.930262      110.789 
0.000423583      3.51564      117.440 
0.000182830      3.59600      100.095 
2.87444e-05      3.00964      94.5762 
0.000467648      11.1526      118.081 
0.000321903      6.91410      112.446 
0.000140285      6.03902      112.486 
0.000251728      2.97745      94.0465 
0.000420064      8.40418      104.684 
0.000178786      3.70011      108.431 
0.000238604      13.0949      116.095 
4.79575e-05      7.04799      112.524 
0.000345142      7.41077      107.185 
0.000104096     0.805400      116.565 
0.000158264      9.85295      110.312 
0.000379655      1.68650      128.497 
0.000194431      2.11596      108.184 
0.000143152      2.88061      88.8059 
0.000448480     0.912885      136.332 
0.000162730      6.46422      110.366 
6.00545e-05      2.00586      111.969 
0.000289695     0.150077     -90.0000 
0.000233619      5.17606      105.807 
5.96156e-05      9.32418      116.565 
0.000148236      8.32596      100.379 
0.000137762      13.0798      114.095 
0.000249440      11.1446      120.223 
6.94183e-05     0.153050      11.3099 
0.000264862      6.05539      114.278 
0.000158685      9.12510      112.013 
4.46697e-05     0.638138      48.8141 
0.000158808      7.03655      112.298 
2.92416e-05      11.1598      119.114 
0.000215600      3.76156      103.368 
0.000217613      10.3862      110.636 
0.000156117      11.1336      119.189 
6.41117e-05     0.403817      41.9872 
0.000202516     0.558320      126.254 
0.000140066      10.0277      107.948 
0.000328735      8.14728      99.3235 
9.08051e-05     0.295618      66.0375 
0.000176287      3.70719      95.5756 
0.000153642      8.43495      111.271 
0.000112129      3.39897      110.672 
7.42335e-05      9.35104      116.483 
0.000159532      2.43625      99.9323 
7.37984e-05      8.36093      100.544 
6.06468e-05      5.60890      115.331 
7.35225e-05      13.0524      114.148 
3.72911e-05      5.34292      112.102 
0.000109281      12.7070      115.597 
9.63472e-05      7.38865      105.788 
0.000145826      8.91043      117.685 
0.000106385      5.99442      120.031 
4.76343e-05      7.44713      115.535 
3.53439e-05      10.2526      110.558 
8.19608e-05      11.1597      120.357 
1.21628e-05      4.43608      101.306 
3.48758e-05      11.1221      119.400 
3.47996e-05      4.44206      101.686 
4.60720e-05      8.47383      111.387 
3.45431e-05     0.210108      0.00000 
2.28051e-05      11.1404      118.290 
1.13986e-05     0.150077     -53.1301 
1.12883e-05      8.82064      118.656 
0.000975528      9.43502     -65.7159 
-0.000942336      7.06313     -8.79383 
-0.000967237      9.70384     -94.0174 
-0.000754017      5.92593      45.4104 
0.000868128      7.78609      162.356 
-0.000326220      12.2995      39.7228 
0.000671877      8.06862      168.998 
-0.000238837      11.1546     -50.6016 
-0.000531210      9.28006    -0.125090 
-0.000691787      6.70032     -90.3401 
0.000512743      8.12294     -140.194 
-7.94654e-05      9.13383     -58.8853 
0.000836238      5.10242     -48.8101 
-0.000153966      6.59348      31.8595 
7.79179e-05      7.77998      162.498 
-0.000872493      1.03443     -41.0882 
-0.000361527      9.16164     -58.8423 
-0.000360502      12.3270      39.7346 
-0.000662139      12.0049     -147.104 
-0.000335514      11.4800     -143.430 
-0.000394845      6.57628      31.9527 
-0.000410680      6.46893     -127.971 
-0.000576494      10.1888     -115.708 
0.000206628      4.92399     -37.2401 
-0.000137283      11.1674     -50.5212 
-0.000576113      9.12337     -58.9942 
0.000446545      3.63138     -109.633 
-0.000396281      9.73804      58.6948 
-0.000378084      11.0690     -31.4800 
0.000384798      9.44306     -65.6080 
-0.000260997      5.72303      178.197 
-0.000316330      8.31397     -163.223 
-0.000317342      9.25980    -0.125363 
0.000549463      10.4572     -115.730 
0.000190122      9.38380     -115.639 
0.000307879      8.95677     -107.544 
-0.000131470      9.68848     -44.0806 
-0.000431670      12.3426      39.6744 
-0.000309897      12.3206     -53.7792 
-0.000252637      10.0956      139.177 
-0.000244235      7.06625     -8.95618 
-0.000187145      8.24311     -95.8466 
-0.000188025      9.98660     -16.4019 
-6.52274e-05      9.87271     -77.0073 
0.000302149      8.13794     -140.282 
-0.000361085      6.04503      75.0443 
-0.000189220      4.62384      142.736 
0.000187004      5.95764      33.6380 
-0.000181581      6.54813      53.4479 
-0.000357652      9.86835     -77.1177 
0.000124411      4.91221     -37.0590 
0.000242019      8.04874      168.971 
6.32310e-05      10.4488     -115.634 
0.000180052      6.30104      89.0925 
-0.000180476      8.49605     -93.5091 
-0.000122169      5.85153     -154.924 
-0.000296935      6.42911     -127.798 
-0.000178880      9.67447     -44.1609 
-0.000120236      8.04452     -145.124 
0.000176838      8.43439     -153.068 
-6.14246e-05      7.04624     -8.98183 
0.000117880      9.19316     -170.988 
0.000234109      8.68494      26.3879 
-6.10412e-05      11.6687      130.898 
0.000117873      5.65233      142.763 
-0.000176502      9.23037      26.2318 
0.000117352      9.36621     -115.690 
0.000177632      5.49341      132.343 
0.000177518      11.1358     -63.6663 
-0.000174818      12.6495      48.2680 
-0.000174867      4.85315      139.678 
6.00901e-05      8.40782     -153.131 
-0.000117191      4.07182      28.4495 
0.000175984      10.0947     -30.4766 
0.000230350      9.87268      71.8198 
-0.000116456      12.9422      129.544 
-0.000117232      9.60439      178.209 
-0.000117069      4.64385      143.225 
-5.93393e-05      10.3565      56.7417 
-0.000115780      7.43066      137.288 
-5.90948e-05      9.43841      107.131 
-0.000115574      8.42322     -105.422 
5.87806e-05      5.66847      142.887 
0.000171915      11.7365     -144.714 
-5.82255e-05      4.94791     -14.0341 
-0.000114022      8.18036     0.562375 
-5.80432e-05      5.91546      80.8543 
-0.000113755      11.0374     -28.9332 
-0.000169862      9.43246      107.014 
-5.71984e-05      11.3299     -144.992 
-5.71673e-05      9.61577     -126.799 
-5.70728e-05      9.75471      58.7543 
-5.71042e-05      6.27661     -85.7973 
5.68980e-05      5.94644      33.4755 
5.66554e-05      8.91950     -72.7846 
5.64244e-05      12.3762      37.1839 
-5.61495e-05      9.71549      10.9168 
5.58798e-05      9.49376     -72.2124 
5.58166e-05      4.12363     -173.879 
5.57435e-05      4.63371     -62.7752 
-0.000252227      9.27533      9.80981 
0.000462754      8.54824      165.085 
0.000855387      6.94372     -96.4469 
-0.000223255      3.09734     -121.537 
0.000398618      9.44634     -94.2503 
-0.000159974      9.25611      9.83039 
5.68794e-05      9.31979     -95.2942 
-0.000304605      9.29187      9.66543 
-0.000423443      11.0060      50.2334 
-0.000162530      7.52862      163.008 
0.000701170      7.65549     -38.6370 
-0.000568386      7.95066      147.429 
5.45375e-05      8.34709      159.525 
0.000106452      12.9151     -136.318 
5.43768e-05      12.5283      51.0267 
-0.000143278      9.96713      38.3203 
-0.000103480      6.24886      174.487 
0.000103866      9.30152     -95.4300 
-0.000101646      7.43969      164.245 
0.000197384      1.08757     -57.7683 
-0.000335623      5.21244     -171.840 
-0.000149239      11.5980      130.034 
-0.000236670      12.0001      41.5550 
0.000283115      8.35929      159.699 
0.000190027      12.5411      50.9547 
-0.000287246      12.1779     -47.9296 
0.000639557      13.3592     -129.960 
0.000262857      5.42888      15.1600 
-0.000139701      6.19682     -97.7877 
9.88737e-05      7.62561      46.5949 
-0.000229359      11.7120      130.846 
-0.000191456      7.54799      163.053 
-9.87344e-05      9.98304      38.2482 
9.03468e-05      8.10391      4.38650 
9.85354e-05      8.54305      165.217 
0.000279962      7.44553     -167.905 
-0.000376338      10.6460     -122.885 
-0.000139628      9.74413      10.5251 
-8.81844e-05      3.10414     -121.023 
-0.000286542      10.1001     -27.7302 
-0.000134379      6.02437     -87.9085 
9.52218e-05      13.3643      44.9386 
0.000171627      11.6917      122.141 
9.06055e-05      12.9005     -136.256 
0.000220904      12.1825      124.498 
-0.000175302      11.1137     -112.874 
0.000239859      6.98700     -149.177 
-0.000726833      12.3678     -36.5181 
-4.75828e-05      11.3392      129.417 
-4.75327e-05      9.15618      29.8701 
-4.69621e-05      7.43421      164.395 
-4.68419e-05      9.44474     -172.334 
-0.000306718      9.79865      8.92564 
9.07797e-05      13.0288     -136.431 
-9.08562e-05      8.21996     0.418439 
-0.000130143      6.23336      73.6027 
8.82237e-05      11.8414     -144.832 
0.000196823      7.75285      69.4602 
0.000191664      8.56192      165.250 
-0.000130018      4.91580     -100.075 
-0.000221778      9.57242      142.555 
0.000125606      9.29962     -95.3058 
0.000802963      6.69947     -166.712 
-4.50969e-05      6.22869      174.469 
0.000299653      7.00091     -135.347 
-0.000123279      9.14939      30.0410 
0.000170624      13.3781      44.8796 
-0.000204402      9.42466     -172.318 
-0.000188775      12.7578     -42.1393 
-0.000387334      10.4300     -140.602 
-0.000205059      7.45300      164.436 
4.46067e-05      7.64034      46.6993 
0.000298797      11.4813      30.2284 
-4.44076e-05      11.3263      129.338 
-8.71438e-05      11.9226      42.1429 
-0.000186180      7.36371      91.8687 
0.000125129      10.2928      79.4773 
-4.37364e-05      6.82194     -105.300 
0.000159843      12.5476     -40.0877 
0.000152327      10.1159      160.238 
-0.000795110      10.9931      129.685 
-0.000246671      7.44762      137.830 
-0.000289527      7.53434      162.866 
-0.000678140      11.4394     -116.474 
0.000117244      10.5797      138.142 
-4.24274e-05      2.89581     -14.8033 
-0.000522059      12.2616     -142.289 
-0.000240573      8.88644     -50.9359 
-0.000318767      6.63261     -95.7138 
-7.94837e-05      6.27382      176.159 
-0.000152050      9.27190      9.68645 
-4.14268e-05      11.6005      129.893 
-0.000318122      6.21079      12.6459 
-0.000153076      9.68458     -140.196 
-0.000563626      12.8878     -141.173 
-4.08797e-05      9.53842     -73.8063 
-7.60402e-05      9.07685      42.0513 
-4.09152e-05      11.9076      42.2084 
0.000226329      5.47309     -82.0165 
-0.000236149      9.77749     -52.1451 
-0.000279071      9.97051      38.1567 
0.000178676      13.0435     -136.492 
-0.000213306      5.04705     -18.7232 
4.03982e-05      4.37631     -50.5592 
-0.000199733      8.20045     0.419435 
-0.000204765      9.04097      151.169 
0.000552608      9.83863     -26.5670 
0.000111800      8.37130      159.877 
-3.96143e-05      10.8798     -127.081 
-3.95321e-05      6.84979     -104.886 
-0.000214916      12.0018      41.4185 
3.94225e-05      13.3925      44.8184 
-0.000373195      12.7723     -42.0805 
-3.92393e-05      6.00826     -71.5651 
-7.57436e-05      11.7273      130.781 
0.000143665      12.3737     -40.2798 
0.000162130      12.2727      37.3176 
3.89210e-05      7.76551      6.20752 
0.000231727      11.7097     -146.283 
7.53365e-05      8.02710     -171.544 
-3.85954e-05      2.90105     -15.1901 
-0.000111073      9.03701      86.4486 
-0.000175535      11.9063      42.3461 
-0.000111927      6.85326      39.0762 
-3.84777e-05      6.19421     -97.6089 
0.000206633      9.63439      169.717 
-7.05441e-05      11.2446      128.503 
-0.000108265      9.39188     -71.7576 
0.000505439      13.3932      44.6981 
3.82002e-05      7.65550      47.0138 
3.80945e-05      11.7855     -144.882 
-3.79725e-05      3.45795     -131.243 
-0.000170402      9.39067     -172.045 
3.76423e-05      7.79797      8.10983 
0.000242027      11.3394     -121.000 
-0.000408806      11.8681      130.831 
-0.000100303      9.74045      10.4079 
-7.17607e-05      6.02514     -87.7159 
-0.000392860      10.8680     -126.999 
0.000370876      9.87323     -106.233 
-9.91091e-05      8.11015     -146.977 
-7.15812e-05      9.01171      130.228 
-7.01438e-05      10.4823      40.5902 
0.000320328      8.63031      46.6911 
-0.000106653      9.81866      8.90729 
-0.000107217      6.08240      4.90453 
-0.000104479      8.82483     -39.3895 
-3.64853e-05      4.91938     -100.307 
7.16735e-05      11.7577     -144.903 
-0.000150911      8.70586      92.1043 
9.76849e-05      10.2701      79.5645 
-0.000128528      11.8399     -126.965 
0.000280896      7.68725      151.571 
-0.000191679      3.50554     -176.724 
0.000163167      8.98149     -107.630 
-3.57488e-05      6.86440     -104.685 
0.000100305      9.06158      1.01066 
0.000104215      11.6723     -53.1485 
0.000103582      9.07122      13.5144 
-0.000341194      8.98689     -42.7464 
0.000284948      8.26053      162.092 
0.000127031      9.28019     -95.3169 
0.000159479      8.01525     -72.8764 
-3.48561e-05      12.2094     -49.1844 
3.46465e-05      11.7300      122.252 
-6.35252e-05      9.40029      93.7806 
-3.43866e-05      6.83470      39.4222 
-6.63229e-05      10.7541     -150.716 
0.000419693      11.0528      142.425 
6.70458e-05      10.1263      17.8254 
6.59620e-05      10.0844     -134.276 
-9.46479e-05      8.10425     -146.779 
-3.40661e-05      11.0185      50.1555 
-9.47524e-05      9.95200     -37.0781 
-3.39081e-05      8.84584     -38.1133 
-0.000208499      10.3234      45.0000 
0.000258815      11.7461     -144.984 
-0.000428591      6.10183      4.88886 
-0.000180371      10.9839     -26.1449 
0.000121485      8.59884      147.346 
0.000121718      8.04714     -171.565 
3.34351e-05      11.0689      142.489 
9.46037e-05      12.5197     -40.0742 
0.000108261      10.0585     -50.4850 
-0.000120186      9.84222     -157.917 
-3.32325e-05      4.05402      28.5859 
-6.38588e-05      12.9030     -141.228 
-3.31889e-05      10.8691      54.0581 
-9.26997e-05      10.7325      71.5308 
-6.50658e-05      5.38929     -9.18166 
0.000274463      11.6601     -53.2282 
3.29631e-05      5.42381      14.9610 
-3.29545e-05      8.97998      128.581 
-3.29118e-05      7.47252      164.477 
-9.17012e-05      12.0164      52.7093 
-0.000151982      9.06380      41.9597 
-9.26424e-05      10.0731     -27.6856 
-0.000289223      6.05179      176.403 
-3.26270e-05      6.81964      39.5263 
3.25764e-05      12.1714      124.422 
0.000565028      9.09092      13.4845 
0.000121074      10.8046     -52.7473 
-0.000111670      10.1832      166.947 
-0.000197405      9.03828      86.3204 
9.10299e-05      9.44585     -168.024 
6.38300e-05      7.46887     -167.785 
0.000119550      5.47031     -82.2267 
0.000478789      11.5080      120.845 
0.000187866      10.2074     -104.988 
6.02428e-05      11.1122      143.565 
0.000603704      12.2443      37.2997 
-3.20190e-05      8.58834     -36.7628 
-0.000696270      12.8599     -49.9209 
-0.000144342      4.03690      28.7184 
-0.000272037      12.8114      39.6792 
-3.18527e-05      9.25267      9.70677 
-8.93047e-05      9.80465      144.884 
6.18588e-05      8.36457      23.6859 
-3.17448e-05      7.92268      147.473 
-3.16592e-05      3.72620     -83.2228 
8.78010e-05      10.2366     -52.3018 
9.00919e-05      11.4884     -53.7079 
-0.000220305      7.36308      91.7111 
-5.04516e-05      10.6350     -122.793 
3.11556e-05      11.7853      122.316 
-3.10740e-05      11.0341      50.2229 
-8.24223e-05      10.9390     -149.449 
-5.95775e-05      8.80918     -39.4731 
-5.64633e-05      9.37956      93.6695 
0.000408929      10.1449      17.7917 
-6.06365e-05      6.82185      39.2907 
0.000300244      11.4847      53.5689 
-3.07954e-05      9.30847      9.52155 
-0.000201612      8.32777     -163.392 
5.78602e-05      10.1343      160.276 
-3.05347e-05      8.99625      130.311 
0.000210218      11.4638      30.2794 
-5.65445e-05      5.23250     -171.871 
0.000158138      5.58446     -161.633 
0.000186527      7.69826     -151.107 
3.01928e-05      2.12780     -143.013 
-0.000110936      11.2041     -133.554 
-3.01646e-05      6.87818     -104.480 
-8.47501e-05      4.14909      71.7453 
-0.000325605      10.3096      45.0767 
-5.72667e-05      5.40856     -9.14868 
-0.000363989      9.97022     -138.090 
-0.000393675      12.8122     -130.377 
-0.000181350      11.8918      42.4094 
-2.97938e-05      9.37060     -172.028 
8.69436e-05      10.8280     -146.602 
0.000189723      8.00931     -73.0149 
-0.000208397      9.98644      38.0849 
-2.96304e-05      2.69266      76.6918 
5.72434e-05      9.08109      1.00849 
-0.000159045      10.9476     -46.0359 
-0.000180934      12.0165      41.3569 
0.000107951      11.3227     -121.051 
2.95441e-05      10.5836      136.839 
-2.95002e-05      7.49205      164.519 
-0.000197975      9.28849      9.54222 
-5.72014e-05      12.0122     -142.577 
-0.000297850      8.94345     -68.4851 
-8.15780e-05      1.96591     -99.3581 
0.000198379      12.4322      42.1304 
-0.000135407      6.80676      39.3947 
0.000154007      6.96385     -96.4281 
0.000197784      9.72656      32.3193 
-8.26542e-05      11.9455     -37.7913 
-2.86919e-05      4.34677      75.0641 
0.000107060      11.6877     -121.923 
-7.88671e-05      7.94854     -120.048 
-2.86625e-05      11.1031      50.1161 
-8.16138e-05      9.77550      8.82675 
0.000134260      13.0576     -136.551 
-0.000390897      12.7604      52.7716 
0.000221438      11.6855     -39.1649 
5.49357e-05      8.89222      165.275 
-2.85098e-05      13.2306     -40.7705 
8.01490e-05      7.49281     -167.672 
-0.000109566      11.3778      154.155 
-2.82302e-05      7.81410      96.7613 
-2.81712e-05      12.1629     -38.1878 
5.54051e-05      10.9648     -144.805 
2.81516e-05      12.2909      51.2107 
-8.12558e-05      10.2582     -99.4265 
-0.000102803      10.5547      128.152 
0.000173337      7.83360     -57.4029 
0.000234221      8.09060     -155.460 
-0.000124824      11.2181     -133.629 
0.000194561      10.5702      136.916 
7.73300e-05      2.37699     -51.4984 
0.000387371      8.24125      162.048 
-0.000102628      9.35054     -172.010 
-0.000197047      7.55370      162.911 
5.45010e-05      11.6450     -136.877 
0.000279635      7.68396     -38.6607 
-7.94291e-05      9.95339     -172.148 
-5.40771e-05      11.1316      50.1029 
-5.32602e-05      8.36488      170.087 
-5.43591e-05      12.1470     -38.2469 
0.000524909      12.1659      122.852 
-0.000442625      12.2332     -142.306 
-2.72162e-05      10.9215     -149.395 
-0.000129479      9.84884      144.921 
9.88386e-05      9.63803      169.598 
-9.96607e-05      11.9078      134.862 
2.69376e-05      9.44486     -94.1278 
2.68514e-05      11.3495     -121.085 
-2.68335e-05      2.68824      77.0965 
-5.24909e-05      11.7884     -128.386 
5.04845e-05      2.77947      13.7436 
2.67096e-05      9.25816     -95.2037 
5.14306e-05      11.5167     -53.6864 
9.84131e-05      10.8111     -146.543 
-7.44795e-05      9.97907      98.0661 
-7.54703e-05      9.04874      42.0455 
0.000146757      10.9808     -144.863 
-5.16075e-05      9.75615      10.2745 
2.63947e-05      10.7762     -52.7678 
0.000115076      12.5632     -40.0282 
2.63560e-05      11.7265     -146.338 
5.00613e-05      6.98669     -135.466 
-0.000285154      12.0122      52.5767 
5.07627e-05      9.10135      1.00625 
-0.000562647      11.3867      154.063 
-2.59923e-05      13.9499      133.374 
4.98073e-05      7.49716     -167.520 
-0.000170033      12.1317     -38.3039 
5.12830e-05      12.1476     -146.415 
-5.02551e-05      13.2591     -40.7796 
9.54010e-05      7.00323     -88.3606 
-4.58627e-05      10.4585     -140.587 
-0.000139579      11.1186      50.1830 
-5.07758e-05      7.57548     -9.11337 
-0.000193407      11.8274      130.747 
-2.56409e-05      9.90172      22.3183 
0.000138426      11.6737     -136.873 
-5.08597e-05      12.8884     -49.9100 
0.000246054      8.58242      147.276 
0.000104010      13.1114     -137.844 
-0.000153147      10.0911     -27.6321 
2.55171e-05      11.8313      120.250 
0.000158726      12.0294      35.9349 
-7.03873e-05      10.5895      70.4685 
0.000415592      12.2790     -49.9555 
0.000186138      10.4279     -130.412 
4.90943e-05      6.25929     -141.224 
2.52683e-05      12.1601      37.2461 
-0.000306627      13.9352      133.431 
-0.000180538      10.5242     -140.320 
0.000398784      13.9900      43.6678 
-0.000278725      12.0164     -142.709 
-0.000112180      11.9300     -37.8487 
9.16725e-05      9.87892     -106.345 
-0.000205264      13.4218     -40.4060 
4.80457e-05      9.36460     -153.763 
-9.06078e-05      3.52576     -176.742 
0.000136440      10.7379      28.2359 
-8.95869e-05      11.6534      134.583 
4.89134e-05      10.1488      83.3211 
-0.000134006      9.74990     -69.9668 
-0.000199719      9.97347     -172.164 
0.000351753      12.1313     -146.364 
-4.82830e-05      10.2549     -99.3148 
4.79973e-05      10.4778     -21.0310 
-0.000115621      10.4839      43.2221 
9.41847e-05      11.6981     -122.004 
-0.000201165      12.2808      131.765 
-2.47566e-05      6.21165     -97.3989 
-4.79817e-05      4.01914      28.8572 
-9.07097e-05      11.0021     -26.0984 
0.000327308      12.1167      37.2865 
-7.12626e-05      8.09317     -146.899 
0.000234791      13.0984     -137.907 
-4.54113e-05      7.82671     -139.144 
2.44860e-05      8.84788      165.336 
-0.000110392      11.4322      59.3968 
-0.000233835      7.57872     -9.26460 
-0.000252084      9.73695      10.2950 
0.000135051      13.0716     -136.486 
-4.67883e-05      8.34492      170.063 
4.70528e-05      8.38566      11.4165 
4.35892e-05      9.88705     -106.087 
-6.84191e-05      9.98161      145.035 
-4.59399e-05      9.81583     -157.982 
8.80294e-05      13.3462     -129.893 
2.38974e-05      7.68976      106.316 
-0.000148919      10.0153     -93.2041 
2.38782e-05      14.2849      44.3190 
2.38366e-05      9.12198     -91.1312 
-4.57413e-05      11.2034     -133.700 
0.000103060      10.4434     -130.340 
-0.000126795      7.41374     -68.9729 
-0.000102121      9.05982      86.2008 
0.000165095      6.40083     0.893390 
-0.000106515      9.89405      22.2097 
0.000203780      11.5004      53.6266 
4.60027e-05      9.23799     -95.2151 
4.49769e-05      13.6194      44.5826 
-4.50469e-05      9.71312     -140.181 
-4.63529e-05      6.20907     -97.2135 
-2.33396e-05      11.1587     -45.2180 
4.33957e-05      8.82901      165.304 
-4.60387e-05      9.93741      144.999 
2.33038e-05      9.22377     -120.345 
4.53765e-05      7.27637     -65.4754 
0.000191183      4.32645     -83.6269 
2.32242e-05      4.09748     -174.683 
-4.41245e-05      10.1878      166.836 
0.000108617      14.2293     -46.0234 
4.51211e-05      7.67798      151.699 
0.000103273      9.12160     -91.0040 
0.000105362      10.1666      83.4478 
-2.31233e-05      11.5672      152.281 
-2.30682e-05      10.3822      11.3335 
-0.000123555      8.71731     -57.8435 
0.000125400      7.69526      106.456 
2.29806e-05      11.8232      49.8708 
0.000162211      11.3328     -121.136 
0.000122083      10.9352      145.204 
2.28121e-05      10.9524     -65.1662 
-8.63203e-05      12.8270      39.6215 
-2.28547e-05      11.2169     -133.772 
2.27689e-05      8.81850      59.0153 
0.000130104      9.91330     -145.604 
-2.27796e-05      11.7758     -128.309 
0.000165324      12.2995     -140.277 
2.26821e-05      11.4727      53.6503 
2.26484e-05      10.0787     -35.5491 
-2.25617e-05      8.70663      92.2375 
-2.25781e-05      9.75623      8.84433 
0.000107005      11.7627     -145.041 
-8.11231e-05      5.74278     -172.998 
4.38213e-05      8.64422      46.5934 
8.53873e-05      10.6872      163.362 
0.000165883      9.72704     -78.7360 
-2.24038e-05      9.05026      41.8643 
0.000127141      10.4595     -21.0694 
-6.41334e-05      9.96817     -37.0079 
6.30762e-05      3.38852      49.0767 
-0.000183746      12.0878     -38.3504 
2.22783e-05      7.95709     -37.6480 
4.25162e-05      6.27510     -141.340 
-0.000159318      11.5763      152.196 
-0.000339407      11.3581      144.967 
-2.22205e-05      10.2328     -116.216 
0.000202113      8.36653      11.4430 
-0.000103495      8.86454      128.680 
-2.21981e-05      11.7478     -128.295 
-0.000169391      11.0312      121.353 
-0.000178866      6.05696     -25.2094 
2.21396e-05      6.81692      168.495 
-4.33100e-05      7.43453      137.941 
8.39520e-05      2.36489     -51.8683 
-2.20873e-05      10.1635      166.921 
-2.20540e-05      11.8554      130.760 
4.06653e-05      9.12160      1.00401 
6.20066e-05      9.27810     -139.543 
2.19465e-05      12.3892     -40.2192 
-8.02269e-05      10.7393      65.3457 
2.18476e-05      7.65761     -167.631 
4.27920e-05      12.2534      38.5705 
0.000219230      11.8996      46.8372 
-0.000163599      10.2239     -116.114 
-4.30575e-05      11.6225     -128.151 
-2.17863e-05      10.9617     -45.9596 
-6.14937e-05      11.1161      36.8057 
8.20654e-05      7.53909      107.762 
-0.000158892      11.8797      134.864 
-0.000100043      5.36379      19.3805 
2.17137e-05      7.70662     -151.306 
0.000222247      6.81306      168.655 
-9.87929e-05      8.72687      92.2323 
-0.000138141      6.15146     -174.217 
-2.16145e-05      7.78083     -76.3216 
-2.16239e-05      5.74528     -172.797 
2.15781e-05      8.34354      100.635 
-0.000101104      7.31330     -50.2117 
8.33846e-05      11.6809     -122.056 
-2.15096e-05      11.7352     -128.218 
-0.000139622      9.98934      37.9244 
-0.000158007      8.97257     -42.8310 
0.000198601      12.4943     -51.3687 
-0.000100865      9.95340      145.064 
4.18596e-05      12.5931     -53.7856 
-8.04240e-05      11.1336      50.2473 
-8.05944e-05      12.2492     -142.364 
-0.000139315      10.7226     -123.126 
2.12457e-05      5.88026      171.790 
-2.12856e-05      10.9455     -149.592 
-2.11558e-05      1.78173      87.4172 
4.14922e-05      7.25688     -65.0593 
2.11396e-05      11.4469      30.3286 
-0.000102489      12.0074      131.014 
4.18176e-05      10.9765     -144.718 
6.09470e-05      11.5201     -125.316 
-4.08298e-05      5.02049     -13.5980 
-6.21142e-05      9.95720     -138.174 
-0.000155720      12.3841     -36.4623 
-4.07505e-05      5.82007      6.70811 
-4.05071e-05      11.4484     -116.565 
2.09050e-05      7.26608     -65.2691 
-9.72511e-05      11.2678      59.6115 
-0.000232491      13.4086     -40.3401 
-7.98739e-05      11.6384     -128.090 
4.06445e-05      9.40097     -153.873 
4.01260e-05      8.38269      160.053 
-0.000134817      13.5845      48.2826 
-2.07688e-05      7.53038      164.600 
-2.07044e-05      7.42006      137.841 
7.92922e-05      7.68183     -43.4168 
-3.98738e-05      10.4176     -138.814 
-0.000117749      10.4421     -28.2335 
-2.05356e-05      9.35338     -171.887 
5.79310e-05      12.2412      38.4991 
-4.06058e-05      13.5980      48.2189 
-4.01990e-05      9.69757     -140.104 
-0.000174211      13.1726     -139.927 
3.99712e-05      6.04853     -53.4699 
0.000153247      12.0458      35.8783 
0.000116893      10.5564      136.996 
2.04078e-05      9.23623     -95.0945 
-2.03949e-05      11.4051      59.4345 
-2.03962e-05      11.0891     -140.855 
-5.75203e-05      7.77606     -76.4666 
0.000114705      6.23325     -138.382 
9.74385e-05      11.1225     -151.775 
9.52446e-05      11.1236     -60.4848 
-2.03132e-05      8.59316      149.976 
0.000115916      13.0863     -136.547 
2.02902e-05      7.96902     -37.7591 
-5.98141e-05      10.9696     -149.788 
3.95253e-05      5.85745      171.951 
9.46179e-05      14.2707      44.2608 
0.000134080      11.6698     -39.2277 
-9.61192e-05      11.6669     -128.107 
3.98037e-05      7.78285      59.4171 
0.000116261      12.5119     -137.331 
-0.000114263      9.97230     -138.252 
9.59733e-05      10.6931      163.258 
-3.91295e-05      7.54992      164.640 
1.99770e-05      8.34731      100.772 
3.86265e-05      7.84914     -70.9623 
-3.92193e-05      11.0286     -26.1484 
-0.000189634      11.0479      121.301 
0.000113488      10.9925     -144.777 
7.71514e-05      9.93002     -145.670 
0.000114167      5.57538     -137.034 
-1.99125e-05      2.48076      178.613 
-9.53701e-05      12.7637      52.8970 
5.83661e-05      10.5175      146.008 
-1.98260e-05      9.03518      41.9501 
0.000113390      12.6062     -39.9798 
-3.81351e-05      9.82501      132.360 
-0.000113515      13.2491      129.796 
-3.86671e-05      9.53627      103.831 
-1.97886e-05      6.96707     -23.6937 
-1.97947e-05      10.4021      11.3116 
7.58168e-05      11.7743     -144.960 
5.75691e-05      8.92411      82.1417 
1.97568e-05      11.6570     -39.1506 
5.83313e-05      10.4477     -21.2092 
-1.97170e-05      5.91250      3.68202 
3.86387e-05      10.2035     -74.6566 
-3.81441e-05      10.9898     -45.9600 
-9.46699e-05      12.0487      131.099 
-7.61466e-05      12.2522      131.758 
1.95514e-05      8.62513      165.221 
1.95111e-05      9.50459     -168.099 
9.38406e-05      14.2153     -46.0822 
-9.41600e-05      7.67975     -11.7206 
9.36845e-05      8.56538      147.202 
3.77191e-05      10.7283      28.1406 
-3.83151e-05      9.73311      8.74482 
7.51129e-05      9.21680     -95.1053 
5.62790e-05      9.65944     -147.428 
-5.68580e-05      10.9598     -149.877 
-3.79686e-05      13.3644     -45.1797 
-7.52684e-05      12.4172      139.768 
-0.000187236      12.8473     -49.9875 
3.81248e-05      12.5648     -53.8056 
-1.93543e-05      9.96177      98.1936 
-3.81645e-05      9.26851      9.56299 
5.57607e-05      11.5665     -31.7103 
5.64213e-05      11.1031      140.116 
-1.92905e-05      10.1681      166.810 
-5.68482e-05      10.2057     -116.164 
-1.93221e-05      11.5752     -57.8482 
-5.60580e-05      10.4219      11.2897 
5.66457e-05      11.6706     -121.975 
-9.35204e-05      12.7203     -142.859 
3.79907e-05      7.24711     -64.8466 
0.000112341      12.1145     -146.311 
3.76271e-05      9.10989      13.4559 
-5.63281e-05      12.8720     -141.117 
-7.46130e-05      9.58850      41.8722 
-1.91059e-05      6.94137     -23.6109 
-1.91141e-05      10.5149      40.2935 
5.59519e-05      7.79317      59.2889 
1.90812e-05      13.4635      44.5190 
3.73491e-05      10.8149      58.6933 
1.90794e-05      12.6767      43.3378 
9.60140e-05      9.98320      103.674 
-1.90109e-05      6.04868     -25.0422 
-1.90176e-05      10.4457     -140.673 
3.73615e-05      10.5508      151.589 
-1.89827e-05      11.3952      59.5190 
1.89703e-05      11.4367      30.2410 
-5.67523e-05      11.5866     -130.730 
1.89554e-05      8.64472      165.256 
-1.89537e-05      3.74562     -109.985 
-5.56559e-05      9.92306     -170.252 
1.89872e-05      9.41849     -153.925 
1.88798e-05      10.5007      145.947 
3.72521e-05      11.4923     -125.295 
-1.88516e-05      12.8400      39.6911 
-1.88810e-05      10.4296     -137.096 
1.88004e-05      11.7458      48.5197 
-3.69578e-05      5.79995      6.73149 
5.53590e-05      10.4288     -21.2494 
3.72370e-05      9.97849      106.654 
-1.87805e-05      11.0090     -142.383 
-1.87419e-05      10.5126      40.4491 
-1.87195e-05      9.02215      41.8579 
-3.70133e-05      9.72053      10.4295 
-3.68977e-05      10.2958      45.0000 
1.86396e-05      7.95301     -37.8484 
5.53576e-05      12.1769      122.932 
3.68495e-05      6.68445     -166.504 
5.50752e-05      14.0046      43.6105 
-7.35316e-05      13.2342      140.150 
1.86050e-05      9.43669     -153.979 
1.87012e-05      9.31677     -142.589 
3.67513e-05      9.52368     -168.123 
1.86325e-05      6.96169     -96.2686 
1.85875e-05      10.7634      57.5187 
1.85874e-05      12.0883      37.2682 
-1.85781e-05      9.99279     -172.180 
-1.85680e-05      11.5645     -57.9331 
1.85382e-05      9.98530      34.3899 
-1.85673e-05      8.82389      128.561 
1.85035e-05      11.0368      142.361 
-1.85174e-05      7.49197     -6.74705 
-9.49188e-05      10.4445     -137.172 
-1.85029e-05      6.24461      144.123 
-9.38734e-05      6.95925     -23.5466 
1.84841e-05      13.3312     -129.947 
-3.66212e-05      11.5685     -27.9380 
-1.84710e-05      3.71231     -175.362 
1.84275e-05      8.74621      165.298 
1.83621e-05      11.1273      113.294 
1.83677e-05      6.05019      171.254 
-1.83175e-05      11.5369     -57.9618 
-1.82902e-05      10.9773     -149.930 
3.68700e-05      9.32384      159.271 
-3.64098e-05      13.1881     -139.983 
1.82267e-05      13.4800      133.859 
1.82318e-05      12.6914      43.2750 
1.81757e-05      12.2849     -127.393 
1.81476e-05      9.95908      106.687 
1.81429e-05      10.2157     -43.2558 
-1.81128e-05      10.4599     -28.1810 
-1.80978e-05      8.62609     -56.8269 
-1.81190e-05      9.99583     -93.2104 
1.80958e-05      10.7470      57.4628 
-1.81116e-05      11.2920      121.381 
-1.80989e-05      11.9967      52.5201 
4.08417e-05      12.1445     -42.5961 
7.86375e-05      12.5811     -53.8601 
-5.81450e-05      11.7412     -148.583 
5.71555e-05      9.89269     -106.200 
-5.76861e-05      8.85190      128.578 
1.98179e-05      13.1290      130.923 
-5.71879e-05      12.4124     -36.4820 
-7.62959e-05      8.22384     -1.80918 
-3.84646e-05      9.33013     -148.319 
5.69339e-05      13.4941      133.921 
-7.63101e-05      9.56079      103.920 
7.58597e-05      12.1296     -42.6609 
3.79309e-05      10.6947      144.438 
-1.94951e-05      11.4301     -54.9765 
3.76622e-05      8.37028      100.883 
-3.79601e-05      12.0725     -38.4079 
3.77877e-05      8.80124     -91.0406 
3.77959e-05      10.7367      37.6604 
3.75633e-05      13.1158      130.857 
-3.75194e-05      12.5490     -136.616 
1.89048e-05      11.3910     -46.9220 
-3.71479e-05      9.77502     -97.9957 
1.87850e-05      7.86830     -71.0104 
-3.70275e-05      11.0997     -28.8748 
1.88031e-05      7.49626     -36.3204 
1.86641e-05      13.8326     -45.9363 
1.86326e-05      10.2009     -43.3338 
1.85492e-05      6.51254      50.9814 
1.84110e-05      7.17663      20.5553 
-1.83952e-05      9.93846     -152.557 
1.83407e-05      9.23402     -120.454 
1.82406e-05      7.25542     -64.7071 
! Tentative model.
! Flux (Jy) Radius (mas)  Theta (deg)  Major FWHM (mas)  Axial ratio   Phi (deg) T \
! Freq (Hz)     SpecIndex
1.88362e-05      12.5810     -53.8588 
