! Center RA: 12 21 31.69052,  Dec: +28 13 58.50011 (2000.0)
! Established model.
! Flux (Jy) Radius (mas)  Theta (deg)  Major FWHM (mas)  Axial ratio   Phi (deg) T \
! Freq (Hz)     SpecIndex
 0.0975449    0.0335410     -153.435 
 0.0614290    0.0335410     -116.565 
 0.0625989     0.305941      101.310 
 0.0335957    0.0212132     -135.000 
 0.0142849    0.0300000     -90.0000 
 0.0265553    0.0150000     -90.0000 
 0.0418352     0.309233      104.036 
 0.0165705    0.0212132     -45.0000 
 0.0128437    0.0335410     -26.5651 
 0.0194649     0.313209      106.699 
0.00852086    0.0474342     -18.4349 
 0.0206537     0.332039      108.435 
 0.0109730    0.0600000      0.00000 
0.00804351    0.0764853      11.3099 
0.00533408    0.0474342     -71.5651 
0.00166869    0.0807775      21.8014 
0.00160035    0.0948683      18.4349 
 0.0103189    0.0618466     -75.9638 
0.00705288     0.100623      26.5651 
0.00186307    0.0600000     -90.0000 
0.000466467     0.351141      109.983 
0.000913419     0.337083      110.854 
0.00260070     0.356546      112.249 
0.00895482    0.0764853     -78.6901 
0.00407025     0.106066      45.0000 
0.00162454     0.376198      113.499 
0.000393327     0.396011      114.624 
0.000771372     0.409695      113.749 
0.00580854     0.730548      109.179 
0.00257894     0.120000      90.0000 
0.00256768     0.744731      108.800 
0.000839447     0.150748      95.7106 
0.000404631     0.660170      111.318 
0.00209858     0.773191      108.083 
0.00527748     0.135000      90.0000 
0.000780674     0.632317      112.306 
0.00553788     0.787464      107.745 
0.000744779     0.618466      112.834 
0.00137940     0.604669      113.385 
0.000324572     0.624440      114.102 
0.00204490     0.610778      114.677 
0.000811003     0.597181      115.278 
0.000279432     0.483037      115.769 
0.00222633     0.120934      82.8750 
0.000514323     0.469574      116.565 
0.00115885     0.644302      114.775 
0.00173730     0.436033      116.565 
0.000235135     0.630714      115.346 
0.00127565     0.109202      74.0546 
0.00100186     0.650730      115.974 
0.000578041     0.664248      115.408 
0.000742408     0.801764      107.418 
0.000948772     0.123693      75.9638 
0.00165244    0.0807775     -68.1986 
0.000371685     0.456207      117.408 
0.000366673     0.100623      63.4349 
0.000847399     0.422670      117.474 
0.00101522     0.670820      116.565 
0.00146759     0.114237      66.8014 
0.000162586     0.811804      106.091 
0.000762824     0.895237      98.6732 
0.00157704     0.442945      118.301 
0.000589863     0.677661      117.699 
0.00148601     0.108167      56.3099 
0.000419919     0.893098      97.7218 
0.000526765     0.697943      118.217 
0.000648275     0.907965      97.5946 
0.000131120    0.0948683     -71.5651 
0.00323214      3.02989      95.6824 
0.000499638     0.463303      119.055 
0.000124761     0.684763      118.811 
0.00103486     0.906104      96.6544 
0.000589735     0.705160      119.291 
0.000745750    0.0912414     -80.5377 
0.000355494     0.450250      119.982 
0.000343004     0.120934      60.2551 
0.000764852     0.470771      120.651 
0.000221926     0.692116      119.899 
0.000636739      1.75506      108.435 
0.000972249     0.117154      50.1944 
0.000211804     0.712618      120.343 
0.000232363     0.904489      95.7106 
0.000103155      1.21731      86.4677 
0.00231726     0.491350      121.264 
0.000576706     0.699714      120.964 
0.00188224      1.21648      87.1729 
0.00267925      3.01351      95.4268 
0.00118249      1.75038      107.969 
0.00219546     0.109202     -74.0546 
0.00290007      2.00630      101.646 
0.000346075     0.686895      121.608 
0.000665706     0.129035      54.4623 
0.000708215     0.707549      122.005 
0.00295624      3.01213      95.1428 
0.000880478      1.23082      87.9047 
0.000494133      1.19887      121.701 
0.00100439     0.511981      121.827 
0.000962335     0.694874      122.661 
0.000141372      1.33778      107.622 
0.000921308      1.33331      107.008 
0.00178303      2.61198      114.063 
0.000310924      1.21953      121.931 
0.00338796     0.532658      122.347 
0.000529863      2.72245      99.5142 
0.000174291     0.456207      62.5924 
0.000508269      1.23037      88.6028 
0.000475001      1.24825      122.735 
0.000685672      2.00938      102.065 
5.58224e-05     0.128160      20.5560 
0.00151214     0.450250      60.0184 
0.00151360      3.01082      94.8585 
4.83840e-05      1.31042      105.945 
0.000142067      2.02406      101.976 
0.000979511      1.29192      105.489 
0.000695957      1.27720      123.503 
0.00146442      2.02722      102.391 
0.000482772      2.72497      99.8253 
0.000700162     0.661532      122.969 
0.00113015      2.61813      114.362 
0.000574584      1.24509      89.3097 
0.000191567     0.114237     -66.8014 
0.000879978      3.00958      94.5739 
0.000331409     0.411886     -100.491 
0.000102468     0.142302      18.4349 
0.000698565      1.28554      124.061 
0.00118975     0.414879     -102.529 
0.000193314      2.71019      99.8794 
0.000233366      1.79311      109.041 
0.00132081      1.26969      104.365 
0.000203400     0.152971      11.3099 
0.000470101      2.99347      94.3106 
0.000275871      2.72757      100.136 
0.000742760      2.99238      94.0242 
0.00100165     0.370473     -58.2405 
0.000478754      1.24500      90.0000 
0.000279505      1.79806      109.493 
0.000384594      2.71280      100.192 
0.000246982     0.553376      122.829 
0.000477940      1.29401      124.611 
0.000374305      1.81221      109.335 
0.000551208      2.99136      93.7376 
0.000270584      2.73025      100.446 
0.000344756     0.403887     -105.068 
6.92681e-05     0.654007      143.393 
0.000266779      2.71550      100.503 
0.000254950      2.99042      93.4508 
-0.000154787     0.535397      101.310 
-0.000479374     0.538540      102.875 
2.98166e-05      1.81723      109.781 
0.000117431     0.921005      96.5463 
2.89947e-05     0.640800      122.574 
4.29956e-05      1.80312      109.942 
