! Center RA: 12 21 31.69052,  Dec: +28 13 58.50022 (2000.0)
! Established model.
! Flux (Jy) Radius (mas)  Theta (deg)  Major FWHM (mas)  Axial ratio   Phi (deg) T \
! Freq (Hz)     SpecIndex
 0.0786815      0.00000      0.00000 
 0.0279750    0.0300155      90.0000 
 0.0118242    0.0300155      180.000 
 0.0114577     0.123757      75.9638 
0.00456041     0.153050      78.6901 
0.00393664     0.241993      97.1250 
0.00704240     0.271802      96.3402 
0.00274728     0.301652      95.7106 
0.00290566     0.330170      90.0000 
0.00137665     0.180093      90.0000 
0.00462678    0.0424483     -135.000 
0.00434444     0.212241      98.1301 
0.000704361    0.0949173      71.5651 
0.00240215     0.360186      90.0000 
0.00338728     0.108222      56.3099 
0.000482015     0.247514      104.036 
0.00107386    0.0300155     -90.0000 
0.00247258     0.844524      106.519 
0.000655602     0.295618      113.962 
6.22995e-05     0.764512      101.321 
0.000235424     0.759190      99.0992 
0.000233901     0.361434      94.7636 
0.000369753     0.391354      94.3987 
0.000771859     0.725978      97.1250 
0.000216360    0.0424483     -45.0000 
0.000106103    0.0848966      45.0000 
0.000436582    0.0600310     -90.0000 
0.000197389     0.335583      116.565 
0.000145528    0.0671167     -26.5651 
0.000752547     0.390201      90.0000 
0.000818503     0.563940      115.201 
4.69053e-05     0.551828      112.380 
9.19763e-05    0.0848966     -45.0000 
0.000965215     0.350038      120.964 
0.00148388     0.963960      95.3600 
0.000577683     0.108222     -33.6901 
0.000350931    0.0671167     -116.565 
0.00109375      6.49198      102.815 
0.000219225     0.551011      119.358 
0.000517507      1.57901      104.307 
0.000595268     0.134233     -26.5651 
0.00104574     0.882067      107.834 
0.00149892      3.80499      104.143 
0.000567866      1.47094      101.774 
0.000769489     0.722868      94.7636 
0.000500556      6.38351      105.539 
0.000254599      8.85733      102.720 
0.000588333      1.58670      105.357 
0.000170148     0.569504      108.435 
0.000854629      9.32172      106.451 
3.17541e-05     0.934080      95.5320 
0.000179326     0.788842      81.2456 
0.00108998      8.86399      102.909 
0.000586258      3.23109      111.799 
0.00116205      2.58185      141.135 
0.000761720    0.0949173     -108.435 
5.44638e-05     0.541112      123.690 
0.000776455      3.35483      117.711 
0.000374534     0.793965      79.1042 
0.000364795      5.45487      108.936 
0.000221351     0.391354      85.6013 
0.000568677      9.84599      96.6478 
0.000152442      8.87231      101.311 
0.000173777      2.25046      91.5285 
0.000555027     0.161638     -21.8014 
0.000304198     0.366386      124.992 
0.000752549      5.53613      101.247 
0.000227573      6.49871      103.073 
0.000480695      1.43562      100.846 
0.000436250     0.566331      122.005 
0.000449288      5.12668      106.313 
0.000343959      8.86647      101.121 
0.000242466      2.16120      88.4083 
0.000576118      4.14716      104.235 
4.60018e-05      6.48282      106.675 
8.55996e-05     0.108222      33.6901 
0.000502788      1.61566      105.075 
6.75836e-05     0.967226      97.1305 
0.000187891      2.24986      90.7644 
6.63671e-05      3.34097      117.256 
0.000198024      9.86848      109.537 
2.26831e-05      1.84588      97.4746 
0.000524916      6.21910      101.688 
0.000595354      10.1511      96.7883 
0.000608984      6.49150      106.929 
0.000125054      1.85002      98.3963 
0.000341744      11.3449      110.590 
0.000535561      9.87932      96.8006 
0.000354005      9.58058      115.602 
0.000430922      9.31326      106.274 
0.00117472      9.85848      109.373 
0.000381318      3.24236      112.291 
0.000439471      11.1699      109.942 
0.000554393      2.41790      101.456 
0.00102341      9.19889      98.8169 
0.000150785      5.48327      108.834 
0.000256133     0.408255      126.027 
0.000514544      9.02333      107.410 
1.98648e-05      6.93449      103.256 
0.000505343      4.86689      108.323 
0.000259751      2.13119      88.3859 
0.000243529      1.81612      97.5978 
7.40404e-05      6.96371      103.199 
0.000193277      2.24966      90.0000 
0.000251268     0.967226      82.8695 
0.000487413      2.60529      141.549 
0.000344718      9.91743      115.247 
0.000498844      5.11833      105.990 
0.000393137     0.891718      109.670 
0.000380751      2.04119      91.6853 
6.72383e-05      2.70390      107.424 
0.000485669      9.59359      115.763 
0.000320248      5.58794      109.119 
0.000116916     0.268467      63.4349 
0.000154832      8.76079      103.467 
0.000219000      6.99294      103.143 
1.66686e-05      8.86073      100.930 
0.000280260      8.56692      107.737 
0.000130088      2.40049      88.5670 
0.000406166      11.3836      110.678 
0.000139996      8.83291      109.235 
0.000122969      2.27987      89.2457 
0.000197980      5.60089      101.429 
0.000454561      9.93027      115.403 
0.000313965      3.20324      111.998 
0.000162300     0.283165      57.9946 
5.44302e-05     0.582795      101.889 
0.000124132     0.971408      81.1125 
0.000252763      2.28047      88.4916 
0.000186302      8.82307      109.051 
7.04941e-05      9.88292      96.9734 
7.89649e-05      2.26582      96.8473 
0.000143855      10.1740      96.4326 
9.33018e-05      2.84743      110.340 
1.39727e-05      8.88007      102.488 
0.000142294      3.32828      117.952 
0.000129284      5.26537      101.500 
0.000206850      9.57969      116.003 
0.000154037      9.95377      97.4459 
0.000101604      6.51918      101.412 
6.38929e-05      6.83556      99.0890 
0.000101837     0.108222     -123.690 
7.52949e-05      9.58194      115.200 
7.54253e-05      4.15464      104.636 
1.29769e-05      8.72397      104.134 
7.45972e-05      1.00107      81.3779 
4.95191e-05      5.54978      108.927 
6.24694e-05      8.70227      104.374 
0.00103647      13.2227      9.27149 
-0.000976230      16.7661     -124.061 
-0.000497315      7.70506     -47.0522 
-0.000966505      12.9378     -175.613 
0.000543576      13.2925      7.78338 
0.000530577      14.3935     -140.835 
0.000704771      17.8479      146.658 
0.000866944      11.6998      14.2501 
0.000781246      13.1149      8.81720 
-0.000772005      4.40091      22.0209 
-0.000578800      10.0157      43.5429 
0.000700463      17.2924      43.8062 
-0.000906043      8.08394     -93.4058 
0.000634527      17.8393      146.177 
0.000840980      11.5454     -24.5678 
0.000709840      3.50616      156.288 
-0.000356885      9.83524     -126.065 
-0.000504790      9.56379      167.314 
0.000294664      7.22495     -122.104 
-0.000555338      7.72554     -46.8892 
-0.000280458      10.3890     -31.8992 
-0.000451837      19.4108      135.313 
-0.000219730      16.8110     -26.6108 
0.00102093      17.8553      51.6862 
0.000663817      16.8122      37.0944 
-0.000398807      9.56700      45.3813 
-0.000202250      5.65554     -4.26110 
0.000212213      19.0715     -44.5537 
-0.000389436      7.13806      116.996 
-0.000325806      3.38690     -18.5915 
0.000266392      10.1513      92.7116 
0.000266791      3.51479     -103.318 
-0.000326232      12.6771     -130.778 
-0.000817007      10.4361     -5.93892 
-0.000450401      16.7708     -26.5651 
-0.000198867      9.43692     -7.30472 
0.000325434      14.9195     -62.9723 
-0.000563536      13.3819     -98.6399 
0.000378901      7.19954      147.769 
0.000196906      8.12657     -16.2913 
0.000197309      6.27294      14.9672 
0.000298452      13.3361      153.550 
0.000190780      7.21559     -122.432 
0.000251826      13.2628      7.80094 
-0.000190704      10.4302     -172.896 
-0.000128317      6.04646     -119.747 
-0.000253051      16.6249      48.8046 
-0.000358054      17.9140      43.1006 
0.000312523      15.8939     -67.9374 
0.000188705      13.1883      9.16380 
0.000124653      15.6982     -64.1699 
-0.000189771      3.34413      9.29746 
-0.000578687      1.60389      7.52733 
-0.000190119      19.2242     -37.2640 
-6.46290e-05      7.68312     -46.8997 
-0.000185380      8.28045      66.9644 
0.000185205      19.0926     -44.6178 
-0.000341417      9.24556      32.8143 
0.000245130      9.32805     -114.916 
6.40822e-05      13.3039     -138.473 
0.000152522      14.1110      97.8212 
-0.000184625      12.8212     -114.465 
0.000242410      10.8053      42.8612 
-0.000291509      19.4106      135.437 
-0.000182193      15.5771      15.6417 
-6.26711e-05      4.38975      21.6577 
6.27009e-05      12.9254      133.212 
-6.21599e-05      21.4046      135.170 
-0.000121664      19.5694      49.2278 
0.000121779      7.42766     -80.2341 
0.000180389      15.3000     -43.4917 
0.000240232      12.9049      133.115 
-0.000120465      15.9280      112.363 
-0.000120355      11.0924     -100.126 
0.000121253      1.24777     -152.803 
0.000119968      6.24395      15.0383 
-0.000120055      14.0017      31.9533 
0.000119659      13.3462     -138.462 
-0.000197394      13.3017     -57.9946 
-0.000119846      12.7479      157.296 
0.000120036      12.2729      50.3559 
0.000548166      12.3678      84.0134 
5.99383e-05      12.9249      127.456 
-5.94820e-05      5.65195     -99.1597 
0.000151131      14.0458      163.114 
-5.90003e-05      6.92334     -94.7250 
-5.89598e-05      19.2424     -37.3351 
-5.89204e-05      10.3909      155.434 
-5.88554e-05      12.6998     -130.689 
5.83265e-05      12.2814     -59.2998 
0.000306560      6.33095      14.8269 
-0.000411938      6.02437     -95.1453 
0.000409731      14.1298      90.1217 
-0.000633548      10.4563     -173.079 
-0.000204612      9.62976     -89.8214 
0.000508410      15.1047     -162.428 
-0.000321595      14.8434      97.0826 
-0.000307681      9.58492     -86.7687 
0.000435330      11.9559     -158.973 
0.000251849      15.6963     -47.8658 
0.000371782      6.30194      14.8967 
-0.000434759      15.9166      112.263 
-6.86678e-05      9.39615     -87.9863 
-0.000965370      15.8490     -105.930 
0.000479730      13.9513      90.8629 
-0.000502538      15.3673     -84.6232 
-0.000360260      7.61539      73.9902 
-0.000130703      14.0006      155.302 
-0.000404095      20.5784     -135.709 
-0.00121167      15.7453      76.3353 
-0.000124264      13.6200      148.236 
0.000241285      15.6838     -121.865 
0.000433812      16.0722     -158.079 
-0.000186309      11.6004     -8.92735 
-0.000323327      17.3078     -34.4059 
0.000122262      14.6461     -178.356 
-0.000332862      11.9650     -124.167 
0.000234817      9.32023     -68.4710 
-0.000222087      11.6051     -9.07374 
-0.000272052      15.6182      163.828 
-6.11766e-05      12.4900     -112.007 
-0.000421694      12.8404     -89.4643 
-0.000350119      13.3176     -57.8851 
-0.000262096      16.4985     -114.607 
0.000166028      12.2550      2.80774 
-0.000244616      16.7274     -147.449 
0.000453267      12.7201     -179.594 
-0.000206538      13.9733      155.250 
0.000115735      12.4537     -105.510 
-0.000300589      9.46148     -148.878 
-0.000262202      13.7467     -82.2229 
0.000165547      12.1085     -5.11631 
0.000545939      10.5704     -70.4318 
-0.000164901      12.5178     -111.955 
0.000160187      9.82637      176.673 
0.000158055      10.6354      149.675 
-0.000136679      11.5825     -48.4642 
-0.000670817      16.1431      156.913 
0.000268169      6.03714     -153.435 
-0.000150825      13.6455      148.302 
-0.000821134      16.3712      140.651 
0.000109513      14.4654     -152.320 
5.55922e-05      13.8937     -129.567 
-0.000365102      17.9733     -141.983 
-0.000105961      7.63176     -86.8436 
0.000101318      13.8387     -119.620 
5.49088e-05      8.71361     -112.683 
-0.000103219      16.8790      48.7472 
-0.000106978      11.1186     -126.219 
-0.000146660      8.15125     -42.9109 
0.000138632      12.6899     -179.729 
-0.000104832      11.6050     -48.5624 
-0.000153187      16.6873      155.463 
-5.40178e-05      10.4174     -2.14661 
-0.000197882      16.3755     -55.9021 
0.000227356      15.6679     -121.772 
-0.000147330      4.04183     -114.095 
5.24811e-05      14.6161     -178.353 
0.000479347      17.9340     -124.780 
-5.23848e-05      16.7146      155.506 
0.000102831      14.4793     -152.214 
9.87348e-05      19.7482      129.081 
0.000140418      14.9346      134.674 
0.000268237      12.4457     -105.377 
0.000208341      7.26643     -10.7065 
-9.84933e-05      12.7890      97.1421 
0.000448181      10.7036      70.3443 
0.000144457      9.06296     -19.9353 
0.000181741      13.2693     -116.159 
-0.000260299      12.7756      157.348 
-5.12176e-05      14.6298     -32.7780 
-9.98395e-05      14.8173      97.2121 
9.78874e-05      7.38013      40.8812 
5.11148e-05      13.6797     -126.618 
0.000187838      20.4607      136.902 
0.000261693      8.70208     -112.501 
0.000184944      1.18224      35.7279 
-5.04121e-05      13.6647     -46.2438 
-0.000220821      12.5066     -111.828 
-5.00517e-05      11.0181      7.66710 
9.28817e-05      15.7248     -54.5504 
5.00235e-05      15.4139      143.307 
0.000119832      14.0432     -134.654 
5.00361e-05      7.75141     -160.795 
-0.000281874      15.3539     -175.181 
0.000605243      20.6264     -41.9948 
4.97238e-05      8.54570     -131.298 
-4.94687e-05      14.9670     -65.2325 
-0.000442929      9.86449      44.3836 
9.73431e-05      10.7881     -27.4937 
-0.000745087      16.6475      155.514 
-4.92628e-05      9.39725     -87.8034 
0.000637779      14.4528     -152.159 
-0.000327830      8.83797     -122.666 
-9.56303e-05      3.07344     -51.3336 
-0.000292231      15.1042      44.8390 
0.000606117      13.6736     -126.794 
4.85407e-05      9.35918     -68.3675 
-0.000258891      12.2311     -123.494 
0.000118084      12.5729      105.928 
0.000225011      15.7004     -54.4868 
9.20601e-05      14.0430     -134.827 
-0.000234823      9.27080      32.7138 
-4.80583e-05      9.24105      89.2556 
0.000298076      19.3792     -128.147 
-0.000215638      18.3937      54.9620 
-4.78219e-05      10.3874     -2.15281 
-9.13471e-05      7.93136      124.831 
-0.000211945      11.0479      7.64633 
-0.000310809      10.4660     -5.92192 
0.000332230      15.4559      143.284 
0.000243108      8.54306     -131.582 
-4.71478e-05      11.2939     -60.9162 
-0.000471502      20.2023      46.5652 
-0.000553442      14.8211      97.3272 
-0.000313112      14.6401     -36.7524 
8.88728e-05      10.2573     -118.665 
4.61905e-05      16.8555      115.287 
8.72183e-05      17.7706      149.234 
9.07800e-05      10.8020     -27.6349 
-0.000166457      13.0677     -63.2584 
0.000458395      19.3130     -138.211 
8.90196e-05      12.5433      82.9936 
-4.54382e-05      7.60717      74.2075 
-0.000223139      8.07210     -48.0144 
-4.48596e-05      9.21069      89.4399 
-4.47560e-05      10.2659      36.8046 
-8.19960e-05      6.02175     -94.8609 
0.000551177      20.8112     -45.5259 
-0.000201559      3.05478     -51.7732 
-0.000317738      10.7743     -148.435 
-8.59572e-05      11.9403     -66.1381 
0.000164967      15.7464      104.565 
0.000165398      14.4190     -142.438 
0.000160008      12.2266      2.95512 
0.000226845      13.1092      117.386 
0.000159439      15.7589      47.7771 
0.000121191      12.3484     -59.3223 
-0.000198571      16.6909      125.489 
-0.000227279      14.1030     -144.350 
-0.000165888      3.30412     -32.3943 
-0.000393423      16.3587     -55.9892 
-0.000254953      14.6706     -124.501 
0.000228537      16.8427      115.195 
-0.000119643      14.4929     -95.3446 
0.000297805      10.7754     -27.7089 
-0.000421699      11.3910     -135.107 
0.000195142      15.0225      50.4297 
8.28253e-05      20.6063     -41.9328 
4.28948e-05      16.1000     -158.119 
-0.000243059      12.8102     -89.5972 
-0.000118577      9.21045      89.6266 
4.25307e-05      13.7481     -142.181 
-8.05130e-05      7.29001      73.5013 
-4.22929e-05      14.8941     -33.0816 
0.000147502      9.03475     -20.0002 
-4.22156e-05      11.2531     -60.9755 
0.000375021      20.8536     -45.5248 
-0.000115409      15.5894      163.797 
-0.000350695      9.51514      15.9193 
-0.000226078      14.0224     -81.2615 
-0.000287462      16.8442     -42.0405 
-8.01589e-05      17.3495     -34.4317 
-0.000269526      16.8565      48.6799 
-4.12701e-05      18.5280      133.228 
0.000524347      15.7074     -54.6396 
-0.000118484      15.2839      177.524 
0.000176869      12.5470      82.8576 
-0.000516569      15.8854     -106.005 
-0.000309868      18.4562     -52.7956 
-0.000214789      18.5413      39.4855 
0.000114545      14.9993      50.3566 
4.08144e-05      14.0219     -134.740 
-0.000222899      19.2331     -141.396 
0.000149695      18.0959      127.116 
7.82739e-05      15.4600      47.6734 
4.06149e-05      4.78693      49.3227 
0.000180461      16.1391     -158.060 
4.04581e-05      4.62591     -123.896 
-0.000211781      8.55451     -106.082 
0.000610790      20.3404     -137.391 
-0.000222003      16.0228     -139.480 
0.000561046      11.8438     -58.8862 
-0.000243579      11.9862      95.0246 
-3.95481e-05      13.9151      53.9458 
7.56259e-05      10.6127     -86.2703 
0.000140167      8.48668     -114.210 
-0.000107878      14.3823      100.090 
-3.92040e-05      13.7427     -82.3469 
-0.000110152      14.9326     -161.127 
-0.000108584      20.2241      46.6237 
0.000382021      14.0745      163.149 
-7.60911e-05      12.5097     -89.8625 
3.85460e-05      8.17973     -57.1249 
-0.000239408      3.32951     -32.1176 
0.000178395      14.4136     -142.271 
0.000104605      10.2600     -119.040 
-0.000136471      2.20276      6.25829 
7.25152e-05      13.5665     -36.1853 
-0.000137001      16.2053      155.619 
7.24908e-05      16.4840     -21.5699 
0.000533936      16.2586      56.5153 
-0.000364812      17.2163     -146.946 
-7.15873e-05      13.8908      53.8730 
0.000347580      21.1560     -43.5643 
-3.66977e-05      4.19458      130.065 
7.01825e-05      12.3626     -109.270 
-0.000139049      15.9670     -29.9870 
-0.000105593      15.2852      177.411 
-0.000208009      14.9796     -65.1282 
-3.62230e-05      6.21703     -112.107 
3.61508e-05      17.3420      132.968 
0.000105951      12.9268      133.024 
-3.61417e-05      11.5602      158.697 
-3.61624e-05      18.7021      53.0207 
-0.000133121      11.2100     -114.508 
-0.000247628      12.5097     -90.0000 
0.000151278      17.4076      59.9004 
6.98249e-05      15.7389      104.459 
-0.000100597      18.3525     -38.1622 
0.000276500      14.5656     -129.988 
0.000188329      15.8638      38.4740 
-0.000232497      17.8596      32.5142 
-3.54557e-05      15.3823      162.872 
0.000487617      16.7487     -137.106 
-3.51917e-05      3.48781      171.587 
0.000234372      15.4420      47.9130 
3.48234e-05      10.6936      70.4957 
-3.46202e-05      19.4667     -129.872 
6.71076e-05      12.5529      155.580 
0.000273162      15.9480      118.543 
-6.74709e-05      9.36846      177.613 
-0.000280966      15.3380      75.9651 
-0.000116337      13.0542     -63.3760 
-0.000160497      13.5821      32.4617 
3.44466e-05      9.85812      176.509 
-3.44433e-05      18.6840      53.0942 
0.000526091      13.2561     -116.043 
-3.42985e-05      11.0222      7.82173 
-0.000552386      16.2327      155.662 
0.000189333      15.4843     -47.9051 
9.52205e-05      16.2336      56.4568 
3.42043e-05      15.6830     -54.5761 
0.000127742      15.1769      52.0649 
-0.000593755      17.6078     -135.551 
3.41757e-05      12.3637     -59.2026 
-3.39649e-05      2.18112      7.90987 
-3.39559e-05      4.67706     -108.319 
5.94945e-05      18.4794     -44.0129 
0.000359700      20.5854     -136.654 
-0.000118395      14.1935      160.875 
0.000517560      12.9064      132.927 
-9.52888e-05      17.9969     -142.042 
0.000124709      9.66305      75.6206 
-0.000124405      4.81785      142.843 
-3.36478e-05      16.8088      50.2851 
-0.000247159      18.8492     -54.2611 
-0.000123387      9.26186      32.9704 
-0.000272786      18.8179      39.5019 
0.000478892      19.6514      49.8930 
-0.000120727      12.0193      50.4692 
-6.42465e-05      18.7677     -129.747 
0.000204589      14.4603      84.7628 
0.000266573      15.3254     -8.66810 
6.22175e-05      13.2669      7.92936 
-0.000264935      3.07842     -52.1189 
3.28075e-05      6.92561      120.455 
-0.000185044      11.9836      94.8816 
6.47601e-05      20.6909     -133.413 
6.39127e-05      15.2387      86.5022 
-0.000160618      15.0618      44.8385 
6.35446e-05      16.1112     -158.020 
-0.000145339      17.5562     -146.148 
-0.000179504      16.3188      128.282 
-0.000276568      16.8573     -146.393 
-3.25507e-05      19.2097     -141.340 
-9.42043e-05      13.7049     -55.6130 
3.24723e-05      10.6471      70.2356 
0.000340275      16.6068      119.667 
-3.24206e-05      14.9356     -33.1152 
0.000261881      20.7043     -44.7651 
0.000121207      15.0034      50.5180 
3.23988e-05      16.1297     -62.2905 
9.07407e-05      15.0941      116.054 
-0.000327640      18.9422     -53.1129 
3.21707e-05      12.9069     -80.2326 
-0.000551863      19.7968      39.5278 
-6.16655e-05      6.18923     -112.212 
-0.000694009      19.2284     -141.270 
0.000230927      16.1157     -62.3850 
-3.18734e-05      7.23891      72.3934 
-0.000122644      13.2453      105.234 
-0.000131908      9.33726      177.789 
0.000361014      13.2690      153.551 
8.64212e-05      10.5827     -86.2597 
0.000167966      17.3625      133.040 
-3.15631e-05      7.94854      125.009 
5.77615e-05      5.22426      10.9210 
0.000241049      12.2562     -170.560 
0.000120165      14.3952     -142.365 
-3.15198e-05      13.7387     -82.4709 
-0.000148210      14.2069      21.0360 
0.000191918      16.9124      119.429 
3.13835e-05      16.8692      115.153 
-0.000171596      19.4629     -129.997 
-8.88448e-05      16.7897      50.3639 
0.000387536      17.0238      55.9184 
-8.89899e-05      15.9805     -139.492 
6.06123e-05      12.9332      10.4226 
3.11661e-05      20.8746     -45.4660 
-6.00810e-05      14.1463      42.0760 
6.04130e-05      7.24094     -122.305 
-0.000235961      20.2035      46.6856 
-3.09150e-05      15.9417     -30.0396 
-0.000515241      15.6266      163.722 
0.000142598      8.41184     -165.118 
3.07938e-05      9.72684      150.429 
0.000117002      15.9332      39.8049 
-0.000505835      17.2772     -118.522 
-0.000114829      18.6235      138.787 
-8.71605e-05      14.0521     -81.2801 
5.95426e-05      12.2131      24.9905 
-3.06074e-05      17.3529     -134.860 
-3.04439e-05      3.51750      171.659 
0.000113922      16.8299      115.103 
7.95111e-05      15.6708      152.895 
0.000136464      11.8026     -58.9357 
3.02294e-05      12.3226     -59.2511 
0.000167452      20.7115     -133.473 
3.00683e-05      16.4227      130.705 
5.53525e-05      7.26091     -10.4738 
2.99398e-05      20.9806     -45.4057 
-0.000265396      8.54625     -105.889 
7.91591e-05      16.0637     -125.115 
-8.35041e-05      15.9736     -37.7522 
2.99126e-05      17.0655      55.8914 
-0.000297507      14.9008      48.6729 
0.000107603      17.0668      139.563 
-5.87622e-05      15.9267     -29.9461 
-0.000338409      18.4708     -142.125 
2.98217e-05      14.0812      97.8378 
0.000110427      10.8186     -70.0593 
0.000442194      14.4576      84.8812 
-8.52661e-05      17.5032     -32.3288 
0.000243793      17.4848      147.400 
-8.50472e-05      18.4540     -138.822 
2.95756e-05      10.6189      70.1809 
0.000155270      14.9364      7.15429 
5.79719e-05      15.4617     -99.0413 
0.000431832      21.0230     -45.4049 
-0.000412333      18.5372      39.6161 
-5.67565e-05      16.6578     -146.681 
5.73474e-05      20.3749     -131.837 
0.000106057      12.5812      106.059 
-0.000110464      13.1315     -134.722 
-2.92710e-05      13.8843      53.6999 
-0.000128755      9.45927     -6.92094 
0.000442661      14.9350      56.0544 
-5.58944e-05      11.2225     -114.648 
-0.000208118      16.7857      50.2197 
-0.000214151      15.2729     -14.4445 
8.13187e-05      14.1016      164.073 
-8.41311e-05      13.7636     -55.4773 
-0.000504655      12.0110      94.7268 
7.07666e-05      16.3999      130.773 
8.01899e-05      15.5820      143.217 
2.89412e-05      12.2403     -59.3489 
5.66064e-05      9.71206      150.583 
-2.88623e-05      9.84307      44.5058 
-2.87697e-05      2.18545      8.68933 
-0.000223273      10.4559      99.2467 
0.000156197      16.9538     -120.285 
-8.19932e-05      5.85608     -163.327 
0.000132616      11.6705     -36.4263 
-0.000434563      9.53584      15.6964 
0.000160591      17.0245      139.575 
-2.84418e-05      19.3895      135.500 
0.000412046      19.3361      129.964 
-0.000185836      18.4296     -129.651 
8.29901e-05      17.2322      55.7847 
-0.000307850      18.1960     -139.613 
2.83631e-05      14.5849     -130.079 
-0.000344853      19.5107      139.428 
8.24455e-05      16.4031      130.625 
8.14255e-05      17.2405      138.739 
2.83191e-05      10.2484     -119.268 
0.000133845      14.6294      22.0404 
0.000505452      13.9214      101.939 
-0.000301150      12.8787      31.7648 
-7.94537e-05      14.7952      97.4573 
-0.000160278      15.7745      76.3610 
-2.79840e-05      18.4315     -138.760 
7.59913e-05      18.5124     -143.965 
-5.53130e-05      14.5454      102.145 
-0.000157139      15.9006     -30.0001 
-0.000106283      18.8317     -54.3352 
-5.49595e-05      16.3836     -56.0479 
-0.000146005      17.8935      43.0305 
2.78229e-05      4.74627      2.89995 
-5.45294e-05      21.2142      44.5414 
-2.77966e-05      19.8070      139.362 
-0.000263802      13.2664      105.075 
0.000107861      20.8105     -44.7078 
-0.000102753      16.6478      150.294 
-2.75054e-05      16.4860     -114.512 
7.96324e-05      16.2343     -31.7800 
2.74181e-05      16.8866     -132.048 
0.000233302      14.4726      85.6020 
0.000123765      18.0543      127.099 
-7.93574e-05      20.1817      46.6271 
2.73712e-05      9.67054      75.4483 
0.000201813      13.3766     -18.8415 
-0.000203554      17.7562     -33.4208 
5.31555e-05      16.7707     -137.176 
-0.000284475      18.3298      123.587 
-0.000142267      4.79978      143.128 
-0.000101954      17.2141     -128.348 
5.32344e-05      14.0703      89.5111 
0.000131349      15.2287     -143.491 
-7.69986e-05      18.4738     -138.751 
-0.000127910      15.2277     -85.4807 
-0.000131941      17.2708      57.7724 
-7.76350e-05      19.7743      39.5818 
0.000226700      18.4881     -143.911 
2.70271e-05      14.9802      50.4450 
0.000102229      15.1073      116.157 
2.69729e-05      20.4081     -44.4041 
-0.000176416      14.1789      21.0795 
-7.92003e-05      17.2252     -147.084 
-7.95833e-05      14.5747      102.120 
5.28296e-05      20.5842     -136.536 
0.000252187      19.6321      49.9600 
-2.69449e-05      15.7113      25.9287 
2.69026e-05      15.0268     -130.303 
-7.63684e-05      18.4381     -52.8699 
0.000100042      12.2277      24.8036 
0.000422322      20.4296     -44.3452 
-7.73512e-05      17.6750      58.2519 
0.000176864      17.3926      59.9859 
-2.65947e-05      16.2330      109.205 
2.65247e-05      16.7911     -137.101 
-0.000201220      16.4004     -55.9609 
2.64986e-05      15.5399      143.239 
2.64859e-05      20.3973     -131.780 
-2.64443e-05      11.3912     -135.320 
5.03497e-05      15.2006      52.1344 
-5.11128e-05      18.3933     -135.727 
0.000320542      20.6060     -136.594 
5.00900e-05      15.4914     -99.0238 
-5.14785e-05      15.6843      25.9766 
0.000271635      16.8565      115.060 
-0.000273311      16.7742     -123.919 
-5.12607e-05      15.9720     -105.916 
0.000149218      16.8128     -129.571 
0.000196577      16.2421      56.6036 
-0.000224274      19.6435      39.6699 
-5.15405e-05      12.7494      57.3959 
0.000124699      16.8688     -131.828 
9.85577e-05      19.2930     -138.278 
0.000353305      17.2700      44.0159 
-0.000100303      17.3046     -144.739 
-0.000175373      9.52455      45.3830 
0.000148199      19.3925      46.1272 
2.59787e-05      13.9973     -100.996 
0.000354702      10.5220      134.769 
2.59299e-05      15.4979      143.262 
-0.000146931      19.6600     -129.177 
-4.98976e-05      19.9332     -42.8658 
9.98024e-05      20.0898     -40.3977 
-0.000269406      14.9594      63.1792 
-0.000161125      16.3002      128.199 
5.04484e-05      20.3828     -137.386 
0.000123746      17.2739      55.7584 
0.000246718      20.8530     -44.7084 
0.000245065      18.9894      132.055 
5.07886e-05      10.9417      123.821 
-2.56889e-05      16.8923     -52.2143 
-4.99484e-05      8.86242     -166.291 
-2.56647e-05      16.5596     -57.2014 
0.000143669      8.43322     -165.368 
-0.000220068      14.5684      102.004 
-9.75090e-05      16.8367      48.7567 
-4.97145e-05      18.6461      138.847 
0.000123950      14.0403      89.5100 
-4.97650e-05      17.0682      32.6574 
0.000195194      14.7645      88.6021 
-9.75881e-05      9.49272     -7.07895 
-0.000266167      13.7806     -55.3745 
0.000151572      16.3803      130.694 
9.80387e-05      15.6901     -54.7289 
-4.90697e-05      17.5812     -146.202 
7.42636e-05      15.5999      143.128 
7.37389e-05      15.9337      118.448 
0.000146141      11.3170     -102.709 
-0.000217648      18.4527     -129.591 
2.51364e-05      13.2718      156.276 
-2.50944e-05      3.41667      159.977 
7.32617e-05      17.2828      138.730 
2.51447e-05      20.6197     -44.6461 
0.000363641      21.0020     -45.4632 
-0.000261167      16.2232      109.105 
2.50231e-05      11.9279     -158.921 
4.91511e-05      16.2591     -31.7256 
-4.92140e-05      19.4593     -130.121 
-0.000121503      17.2455      57.7193 
2.49442e-05      15.9294      39.9569 
0.000288286      20.5986     -44.5867 
-7.36335e-05      9.48907     -6.89910 
-0.000165605      15.6691      125.730 
0.000168719      15.5080      118.796 
0.000145034      15.2528     -143.559 
4.54734e-05      5.21866      10.5974 
4.87916e-05      16.3517      130.089 
7.28200e-05      16.9279     -120.337 
0.000121111      17.9010     -148.361 
7.22859e-05      17.6712     -37.5521 
-2.46858e-05      13.8621      67.2091 
4.91255e-05      14.6460      21.8875 
-0.000215866      18.3464      123.665 
-2.46182e-05      19.0946     -129.518 
9.58723e-05      14.7137     -5.73385 
-2.45526e-05      13.1527     -134.815 
-0.000140222      9.04845      20.7796 
0.000191330      17.6820     -55.7171 
-2.45021e-05      20.5561      44.5859 
0.000119439      14.4749      85.4835 
-2.43912e-05      13.7533      82.9832 
-7.17127e-05      17.4579     -144.370 
4.79676e-05      16.9821      55.9455 
-2.44230e-05      15.2364     -14.3634 
-7.19111e-05      17.6592      58.3348 
-9.55619e-05      19.4684      139.438 
7.19221e-05      13.3114      156.209 
-0.000275105      15.7613      147.278 
-4.79958e-05      11.4821      133.202 
-7.18841e-05      18.8073     -54.2819 
-2.42751e-05      14.8782      48.5966 
4.81355e-05      8.17933     -96.3152 
-7.15390e-05      19.1354      135.508 
-2.42163e-05      19.1137     -129.587 
-9.52859e-05      18.9602     -53.0403 
9.54734e-05      20.4049     -137.443 
-0.000139433      12.0753     -119.303 
-4.79254e-05      13.0286      12.5002 
-9.52531e-05      15.1999     -14.2818 
-2.41834e-05      18.3723     -135.794 
7.17353e-05      16.7385      44.3461 
-7.12873e-05      18.4964     -138.813 
-9.51178e-05      19.8559      40.4033 
4.77276e-05      7.00074     -176.805 
4.47684e-05      7.23140     -10.5170 
2.40111e-05      13.6495     -126.870 
0.000142134      21.0444     -45.4623 
0.000118585      19.2938      129.953 
2.39461e-05      14.3714     -142.292 
-2.39562e-05      13.2375     -135.000 
-2.39450e-05      15.6705      26.1233 
-9.49783e-05      19.0421     -141.975 
7.10436e-05      19.5549     -138.608 
-2.39865e-05      16.7138      66.5184 
-7.12911e-05      19.1329     -129.657 
-2.39431e-05      17.2873     -144.821 
-2.38640e-05      16.5461     -149.250 
-2.38286e-05      9.28705      32.8696 
-7.10649e-05      14.8981      48.5100 
9.11399e-05      16.4489      116.892 
9.44831e-05      19.8468     -47.0209 
-4.75667e-05      14.4283     -76.1647 
-4.74022e-05      20.3386      47.2711 
-7.09833e-05      16.6542     -115.272 
2.36918e-05      20.0465     -135.303 
-4.71633e-05      18.2322      124.474 
-4.71534e-05      17.3118     -144.878 
2.36744e-05      20.0252     -40.4422 
7.06499e-05      20.6278     -136.651 
4.71543e-05      18.4267      131.502 
-7.06739e-05      14.8426     -109.975 
2.36405e-05      14.0706      89.3889 
4.84162e-05      10.5007      134.884 
4.70696e-05      18.1725      145.969 
4.71976e-05      15.9194      118.353 
-2.36260e-05      14.7913      97.3421 
-2.36021e-05      19.0657     -142.030 
2.35425e-05      16.7599      44.2744 
-2.35449e-05      5.69042     -114.943 
2.35322e-05      19.0369      130.014 
2.35947e-05      10.9585      123.951 
-2.35339e-05      15.1240      105.414 
4.70147e-05      16.4352     -32.7047 
-4.70980e-05      14.5939      77.5345 
2.34931e-05      17.8314     -56.7386 
6.52743e-05      12.7499      154.943 
-2.34545e-05      18.6793      54.6761 
2.34330e-05      11.3104     -102.561 
-2.34745e-05      16.8391     -152.750 
-2.34833e-05      19.1520     -129.726 
-2.35510e-05      14.4064     -76.0202 
-2.34315e-05      19.0288      134.680 
-2.34392e-05      17.8642     -146.230 
2.34671e-05      16.7390      44.2008 
-2.34190e-05      17.0429      32.7119 
0.000285068      18.2414      39.5285 
0.000148603      18.0720      127.173 
7.66687e-05      14.8903      167.195 
2.60623e-05      18.2606      39.6012 
9.51718e-05      15.5531     -164.678 
0.000118686      14.3658     -162.625 
-4.90343e-05      21.3198      135.171 
-0.000247333      17.1954     -128.270 
-7.27310e-05      12.6003     -90.5460 
0.000117899      15.5045     -47.8227 
-7.13402e-05      13.2742      105.200 
2.47640e-05      15.3046     -19.4637 
6.92707e-05      18.1831     -51.2959 
-6.75543e-05      16.2659      23.8216 
-0.000173922      20.3275     -136.316 
-4.68691e-05      17.5471      133.824 
-4.64354e-05      19.5530      139.419 
0.000110822      15.2763     -19.5012 
6.72390e-05      16.0022      121.663 
4.67835e-05      9.24590     -31.0595 
4.64030e-05      14.8970      167.082 
4.64248e-05      7.23173     -122.633 
0.000131224      17.8479     -56.6580 
-2.34764e-05      11.7971      118.063 
4.58308e-05      20.4213      132.856 
4.37044e-05      13.3385     -18.7611 
0.000111084      13.2371      7.94729 
0.000128129      9.07227      119.956 
-2.30667e-05      6.64209      83.5197 
2.31370e-05      14.1689      70.0680 
4.50060e-05      17.7737      127.664 
6.58444e-05      17.2530      127.866 
-2.29916e-05      13.8109      87.7580 
2.29512e-05      16.0179      121.754 
6.48593e-05      10.7849      42.7443 
2.27750e-05      6.73738     -39.2189 
8.60456e-05      18.5074     -124.566 
8.61183e-05      13.3065     -138.656 
8.69942e-05      13.7550      98.0249 
-6.50840e-05      15.6516      125.641 
6.40507e-05      19.7763     -46.3514 
-6.45256e-05      18.5732     -132.970 
4.36157e-05      19.6538      46.8550 
-0.000125311      17.4836     -40.8248 
-0.000106508      16.1094     -55.7770 
-0.000105761      11.9168     -126.091 
2.21076e-05      14.2712      38.9430 
-6.42278e-05      14.7991      97.5726 
6.29651e-05      10.5008      134.653 
0.000104560      8.88971     -130.896 
6.34523e-05      9.27162     -30.9638 
-6.31861e-05      13.8121      87.6336 
0.000207666      14.7306     -158.872 
-8.36577e-05      14.3875      100.208 
-6.36860e-05      11.8498     -66.4203 
4.24856e-05      17.9483      33.1313 
0.000104637      6.15297     -156.436 
2.18586e-05      10.2760      102.817 
0.000103909      20.6497     -133.292 
4.27749e-05      17.8974      51.6703 
-6.34849e-05      5.65056     -114.795 
-6.35778e-05      13.8653     -83.2900 
6.25852e-05      7.75141      160.795 
-8.31096e-05      18.1363      141.177 
-4.22332e-05      11.5040      133.100 
-4.21788e-05      12.7333      57.5096 
2.15234e-05      20.3993      132.913 
6.26466e-05      15.5275     -15.8081 
6.20432e-05      17.0875      132.938 
0.000102965      15.2948     -143.535 
4.15189e-05      14.5161      133.324 
-0.000103086      14.4137     -75.9044 
-2.11888e-05      12.8531      31.8352 
6.19783e-05      11.6947     -36.3390 
2.11069e-05      13.2840     -138.570 
4.12836e-05      12.2217     -170.675 
6.18538e-05      14.3748     -162.511 
2.10520e-05      15.2948     -159.326 
4.12272e-05      8.45476     -165.616 
0.000102210      10.7948      41.6213 
4.13492e-05      14.9421     -89.0792 
6.15100e-05      13.7592      98.1487 
-4.12045e-05      13.4179      31.0951 
-4.15170e-05      10.8105      83.4674 
-6.16338e-05      13.9700     -48.9180 
-4.10742e-05      12.0607     -119.179 
-4.09999e-05      13.8228      67.2756 
4.07237e-05      14.9945     -81.2551 
-2.07416e-05      14.1274     -144.421 
6.13324e-05      11.6379     -59.1370 
-2.06282e-05      11.4114      77.2432 
-4.07325e-05      14.4047     -83.4222 
4.08276e-05      17.5263      147.370 
4.10754e-05      13.6404      48.2089 
2.05565e-05      14.9027      150.183 
4.05673e-05      13.1949      8.49967 
2.04933e-05      12.6233     -147.029 
-4.02498e-05      9.39609     -6.78335 
-6.10402e-05      16.3903      140.570 
-2.03551e-05      14.8117     -39.4949 
2.03664e-05      13.7195      61.5286 
-2.03374e-05      14.7694      97.5879 
2.03694e-05      16.7222      40.6362 
2.03126e-05      13.1459     -40.7432 
-4.04284e-05      12.3417     -140.620 
-4.02434e-05      7.99035      125.062 
-4.01575e-05      11.4181      77.0963 
2.01591e-05      15.9766      121.719 
2.01588e-05      15.3819     -76.2363 
2.01086e-05      17.2001     -26.9686 
2.00498e-05      13.4330      60.5739 
2.11174e-05      18.4154     -44.0755 
-4.14472e-05      14.8554      27.8064 
6.08169e-05      15.0696     -59.0940 
4.09043e-05      18.8645      131.906 
4.07572e-05      20.2706      43.0199 
-4.03233e-05      16.4818     -114.978 
-2.04952e-05      12.0135      94.8694 
4.04550e-05      18.4370     -44.0106 
4.03858e-05      19.5908     -133.077 
-2.03112e-05      12.7172      57.6237 
4.01092e-05      15.0428     -130.551 
2.02412e-05      13.1686     -40.6580 
-2.02190e-05      7.47991      97.8358 
2.01780e-05      12.6648     -146.989 
-2.01380e-05      6.58516      8.64440 
2.01599e-05      12.6179      119.797 
-2.00330e-05      7.32845      174.129 
-2.00390e-05      13.8780      53.5266 
-3.98386e-05      19.6397      132.586 
-1.99701e-05      13.7389     -55.4064 
-1.99368e-05      8.90840      29.6724 
-1.98700e-05      10.4512      99.0843 
1.98873e-05      19.3205     -48.5884 
1.98990e-05      15.6571      152.993 
1.98640e-05      14.1144      59.8935 
-1.98351e-05      12.0345     -119.249 
-1.97173e-05      13.3762      108.435 
-2.05004e-05      14.8555      27.8070 
