! Center RA: 12 21 31.69052,  Dec: +28 13 58.50019 (2000.0)
! Established model.
! Flux (Jy) Radius (mas)  Theta (deg)  Major FWHM (mas)  Axial ratio   Phi (deg) T \
! Freq (Hz)     SpecIndex
  0.112785      0.00000      0.00000 
 0.0311023    0.0286526     -135.000 
0.00967800    0.0202604     -90.0000 
0.00570226     0.141777      98.2159 
 0.0108404     0.161111      97.2243 
0.00280151    0.0446338     -116.996 
0.00270448    0.0397705     -90.0000 
0.00132689     0.181229      96.4188 
0.00268811     0.145849      105.824 
0.00146544    0.0202604      180.000 
0.00386989     0.164706      103.973 
0.00252767     0.184432      102.453 
0.000731575     0.260038      112.569 
0.00133590     0.286050      114.817 
0.000697166     0.121759      99.5784 
0.00175177     0.313099      116.626 
0.00185494    0.0600310     -90.0000 
0.00150407     0.322315      119.728 
0.000259231    0.0828082     -104.162 
0.00237865    0.0802914     -90.0000 
0.00251987     0.340058      118.035 
0.00319144     0.101837     -101.476 
0.00207725     0.350038      120.964 
0.00188225     0.885454      115.392 
0.000329065     0.140322      90.0000 
0.000603495     0.197181      114.029 
0.000784747     0.189835      108.435 
0.000651124     0.626742      106.699 
0.00125415     0.170734      110.586 
0.00139528     0.645453      106.202 
0.000150340     0.152624      113.162 
7.42759e-05    0.0397705      180.000 
0.000285751    0.0446338     -153.004 
0.000810308     0.404832      122.895 
0.000400159    0.0562440     -135.000 
0.000655216    0.0720098     -123.524 
0.000815368     0.850533      113.557 
0.000667616     0.640096      104.460 
0.000614244    0.0896014     -116.350 
0.000813580     0.416183      125.237 
0.00132198     0.869143      113.023 
0.000264524     0.107434     -111.727 
0.000336046     0.399806      126.913 
8.62897e-05    0.0286526      135.000 
0.000750262     0.655281      102.365 
8.40945e-05    0.0446338      116.996 
8.28475e-05     0.126477     -108.327 
0.000340400     0.170734     -110.586 
0.000116116     0.204262      101.227 
0.000221451    0.0397705      90.0000 
3.88763e-05    0.0600310      90.0000 
0.000581202     0.411820      129.084 
0.000690496      1.18945      106.606 
3.58147e-05     0.201375      95.7743 
0.000385098     0.858831      114.796 
0.000134546     0.189835     -108.435 
0.000163065     0.220795      95.2649 
0.000479319    0.0202604      90.0000 
3.20539e-05     0.215843     -111.838 
0.000208881     0.234065     -110.062 
5.88393e-05     0.240977      94.8229 
0.000547798     0.671167      100.305 
0.000184457     0.240124      90.0000 
0.000374437     0.867194      115.966 
0.000209302     0.253192     -108.489 
0.000418889     0.424884      131.205 
0.000252287      1.20887      106.331 
0.00128462      1.38775     -164.957 
0.000377923    0.0446338      63.0042 
0.000210672     0.271765     -107.184 
0.000354728     0.260423      85.5380 
0.000133325     0.297155     -109.625 
0.000174536      1.22833      106.066 
0.000202091      1.04433      106.703 
0.000147014     0.495028     -104.036 
0.000215473     0.858942      117.752 
0.000367084      1.24709      105.818 
0.000285199      1.67012      108.875 
9.20062e-05      1.06303      106.401 
0.000255663     0.513977     -103.509 
5.72424e-05      2.18988      73.5584 
0.000226757     0.438496      133.197 
0.000158490    0.0286526      45.0000 
0.000816237      2.19570      73.0513 
0.000285573     0.687137      98.3513 
1.81762e-05      1.06870      107.404 
0.000103686     0.993009      64.9648 
0.000344682     0.262662      81.2912 
0.000399843      1.68859      108.660 
6.67952e-05     0.868561      118.934 
6.25889e-05      1.19539      107.536 
0.000208933     0.384412     -171.016 
0.000394461     0.538618     -105.101 
0.000278536     0.966811      65.5634 
0.000257902    0.0562440      45.0000 
0.000215262     0.860688      120.724 
0.000259552      1.69493      109.285 
0.000174179      1.40660     -165.163 
8.52588e-05     0.407936     -168.649 
6.04545e-05      1.21473      107.248 
-0.000181056      1.90140      112.263 
2.41118e-05     0.266484     -103.019 
2.39098e-05     0.452074      135.000 
4.77765e-05     0.286260      77.8948 
-0.00152316      6.70646     -51.6606 
0.000319288      8.42397      53.5925 
-0.000577522      12.1268     -125.602 
0.000618092      8.39669      53.6206 
-0.000574280      11.4484      37.1899 
0.000820987      11.0882     -127.303 
0.000478418      9.18063      57.0022 
0.000609147      13.3207      132.505 
0.000307410      8.21817      58.9429 
0.000187923      6.88804      66.5629 
-0.000402354      4.54249      60.1612 
-0.000559498      5.92685     -169.104 
-0.000380279      5.90796     -127.299 
0.000110388      9.20866      56.9652 
-0.000419976      8.51606     -60.6070 
0.000350207      13.2658      44.3904 
-0.000480343      6.93227     -143.331 
-0.000570989      8.48202      84.3187 
-0.000526538      10.8111     -123.457 
-0.000320519      13.0365     -140.229 
-0.000523645      10.2395      61.2806 
0.000114836      6.86239      66.6476 
0.000557792      9.68672     -21.0563 
-0.000263870      4.08979      69.0810 
-0.000262222      3.92944      9.07558 
-0.000155894      12.1434     -47.2688 
0.000164399      10.5302     -142.019 
0.000355836      8.22864      58.8221 
0.000348677      9.81791      37.9656 
0.000108685      9.66013     -139.451 
-0.000251746      4.41259      134.628 
-0.000156913      7.32900     -133.233 
0.000543751      13.2945      44.3917 
-0.000150086      11.8368     -134.795 
0.000104310      7.58452      36.2032 
0.000247787      6.87015      66.4982 
-5.43155e-05      9.16758      43.4113 
0.000396581      10.1354      130.039 
0.000154400      8.66059     -90.5312 
0.000196957      6.56418      60.6248 
-0.000291601      9.21043      43.3263 
-0.000150879      4.65768     -137.605 
-0.000198247      8.54172     -116.263 
5.22109e-05      7.83122      156.837 
5.19045e-05      9.07692      155.808 
0.000101708      10.2219      178.990 
0.000242689      8.33716      62.5770 
-0.000195849      12.6606     -143.673 
9.55107e-05      9.05710      109.077 
-0.000147730      12.3239     -133.226 
-0.000144276      10.0073      104.229 
-9.76161e-05      9.02392     -69.6347 
-0.000189747      7.98963     -109.750 
5.02504e-05      9.06895      155.921 
5.02256e-05      8.69335      75.0689 
9.65559e-05      9.67496     -139.526 
0.000188310      11.2018     -135.866 
-9.76527e-05      4.09680      68.8261 
0.000282853      11.6737      46.8728 
-0.000142659      10.3038     -26.5147 
-0.000188875      10.6350     -147.207 
4.94052e-05      7.84192      157.032 
-0.000406448      10.0275     -119.120 
4.92889e-05      8.14573     -177.888 
9.52666e-05      7.93360      45.0996 
0.000140764      8.65769      149.764 
0.000185976      11.1005     -127.386 
-4.85504e-05      3.95194      9.32103 
-9.48220e-05      1.82164     -160.759 
4.81472e-05      6.39964      110.868 
9.45971e-05      8.67506     -174.844 
9.36316e-05      5.64575     -171.239 
9.25497e-05      9.08745      155.973 
4.73673e-05     0.592344     -101.694 
-9.24943e-05      3.10145      141.286 
9.23589e-05      8.81377     -172.569 
9.13369e-05      8.66929      75.1651 
9.12828e-05      7.55665      36.1746 
4.66419e-05      8.66079     -90.6603 
9.06634e-05      9.03794      102.004 
-9.11873e-05      12.2958     -133.220 
-9.02476e-05      11.9893      142.249 
-8.98291e-05      13.0651     -140.217 
4.58301e-05      9.24068      13.6447 
9.02550e-05      8.69524     -174.856 
-9.00951e-05      12.6722     -143.602 
4.54678e-05      4.02481      177.147 
-4.53065e-05      8.58834     -126.763 
-4.52486e-05      11.2854      134.857 
4.51967e-05      10.7443      25.4680 
4.50389e-05      11.0964     -148.489 
4.49595e-05      12.7004      52.6805 
-4.47731e-05      7.34289     -133.348 
4.42920e-05      7.96172      45.1031 
-4.42168e-05      7.23976     -179.840 
4.41893e-05      8.34273     -120.066 
4.41628e-05      6.92587     -94.9724 
-0.000703090      10.9060     -133.885 
0.000347271      9.64919     -139.706 
0.000909808      10.2295     -155.390 
-0.000399993      11.8512     -134.726 
-0.000188801      11.4826     -131.044 
0.000124152      2.32029     -90.5003 
0.000362584      9.67726     -139.696 
-0.000113734      8.72938      130.073 
0.000447681      2.32020     -90.0000 
-0.000449797      10.8919     -133.808 
-0.000262970      6.16641      135.528 
-0.000369480      8.55989     -116.203 
-0.000315080      11.4959     -131.120 
-0.000339957      4.50025      179.494 
-5.67486e-05      8.59940      130.286 
-0.000157952      8.37058      78.4211 
0.000376950      9.10663     -85.5908 
-0.000258985      10.7190      32.5041 
0.000151139      9.31858     -33.6210 
0.000193413      8.37246     -37.5241 
0.000387446      11.7603     -127.257 
-5.28941e-05      4.50047      179.236 
5.29439e-05      4.57081     -49.9680 
-0.000227815      5.86194     -121.468 
0.000139125      9.10079     -37.4992 
-8.01649e-05      8.82160      50.4291 
-5.07428e-05      8.74490      129.987 
5.04421e-05      4.58166     -49.4303 
-0.000364270      8.96307      137.803 
-0.000185134      8.86199      67.7175 
-0.000363932      8.57127     -60.5040 
-4.97737e-05      9.82082     -179.418 
-0.000182948      3.57864     -135.680 
0.000140440      4.63993     -43.5977 
4.88664e-05      8.95565     -157.272 
-0.000124768      8.85012      50.4115 
-0.000264768      14.1456      46.2617 
9.11732e-05      4.56899     -49.6161 
9.13846e-05      8.36878     -37.7186 
-0.000177833      6.64000      145.931 
-9.13595e-05      9.78012     -179.530 
-0.000413906      8.84325      67.6677 
-9.14901e-05      8.55130     -116.086 
-0.000321563      8.11081     -22.0111 
0.000131579      7.32631      96.4277 
8.52418e-05      8.70961      149.962 
-0.000169116      10.7361      32.4460 
0.000123713      8.98148     -157.201 
0.000217520      11.9526     -37.5239 
-0.000284599      11.2326      130.668 
-8.79753e-05      9.96410      104.648 
-8.71905e-05      4.18445      2.74439 
-0.000337481      11.5234     -131.129 
-4.43373e-05      9.88860      96.7373 
-4.40726e-05      5.51873      130.445 
-4.40419e-05      8.72670     -103.653 
-0.000361490      8.52420     -116.024 
-8.14319e-05      11.8798     -134.726 
-8.36465e-05      6.40455     -69.5288 
0.000184370      8.69208      149.896 
-0.000118901      4.39820      134.813 
-0.000158111      5.82684     -8.68838 
-0.000117514      6.18034      135.654 
-0.000124354      9.76047     -179.648 
-4.26819e-05      8.72212     -103.528 
-0.000186822      6.50347     -22.2237 
-0.000118430      5.50333      130.582 
-0.000217267      9.88624      96.6207 
0.000150445      4.28537     -45.5675 
-7.95806e-05      10.1229     -98.1782 
0.000113213      5.80304      55.1057 
-0.000226646      10.3238      77.0123 
-0.000335120      8.74109     -103.498 
-0.000120517      9.96924      104.761 
-0.000179747      10.3832     -99.5345 
-4.12030e-05      7.56885     -16.4245 
4.11770e-05      9.67488     -32.9357 
-0.000151286      3.60623     -135.674 
-0.000219500      6.14542     -144.136 
-4.08597e-05      9.49239     -131.584 
7.96961e-05      9.69272     -139.773 
-0.000154673      4.18543      3.01117 
-0.000116113      6.63463      145.688 
-0.000383501      11.2194      130.590 
-0.000143008      9.89251      31.4378 
0.000144232      5.68027      52.7305 
0.000113181      11.9954      46.2166 
3.97806e-05      4.58387     -49.7741 
-0.000148462      4.36267      31.5029 
-7.76138e-05      7.58829     -16.3812 
-3.94709e-05      11.6264     -51.9859 
-0.000138085      13.2654     -134.633 
-3.93142e-05      10.5296     -147.095 
-7.70505e-05      12.4964     -143.460 
-7.52557e-05      8.99606      28.8462 
0.000248622      12.3611      137.820 
-3.88567e-05      9.08004      89.4933 
3.87968e-05      9.80388      72.3056 
0.000104595      7.32852      96.5793 
0.000110829      13.0880      40.0415 
-0.000214374      10.6504     -148.906 
0.000155515      7.06186      33.3304 
-0.000299513      9.52353     -40.1420 
-3.81925e-05      5.96624      153.947 
-0.000177851      9.71984     -179.766 
0.000281520      10.9029      63.7647 
-0.000177775      8.39362      78.3174 
-0.000135540      6.31390      73.0575 
3.74540e-05      7.79209      18.7159 
0.000104799      9.77865      72.3784 
3.72358e-05      9.68550     -33.0326 
-0.000138643      10.2573      61.3350 
-0.000129024      11.2401     -143.027 
3.69871e-05      10.1458      140.600 
0.000291077      11.7290      46.7291 
-0.000213014      9.98298      104.620 
0.000103279      9.72070     -139.756 
-7.21214e-05      12.5121     -143.514 
-3.66529e-05      7.62079     -16.1508 
-0.000100054      9.87243     -11.3313 
3.63597e-05      7.47222      34.1991 
6.86246e-05      6.59939      111.512 
6.85014e-05      7.55018      117.449 
3.63461e-05      4.65408     -43.4321 
0.000229164      10.5492      115.012 
0.000135156      9.88071     -76.3025 
-3.58468e-05      8.56432     -127.216 
0.000554367      10.1302      140.528 
-9.62902e-05      10.8130     -69.9894 
-6.72016e-05      3.89511      41.8765 
-3.55228e-05      4.47999      179.491 
3.52914e-05      7.84254      18.4349 
0.000302498      11.7485     -127.182 
0.000323324      9.02565      101.631 
-0.000163121      6.65137      145.786 
-6.60626e-05      9.10049      89.3716 
-0.000134493      4.16707      3.30345 
0.000190611      10.4815      112.552 
6.57025e-05      6.68142     -178.797 
-0.000247739      7.64026     -16.1085 
9.95542e-05      10.0010      146.501 
0.000324308      8.32288     -119.829 
0.000128084      8.68540      149.715 
0.000167368      2.30003     -89.4953 
-9.54354e-05      5.89961     -4.66923 
3.43534e-05      10.7711      149.913 
9.85891e-05      13.1166      40.0523 
-0.000157983      12.5241     -143.439 
-0.000178949      7.04063     -147.531 
9.52169e-05      6.85930     -104.521 
-3.39704e-05      6.70304      54.8404 
-3.37791e-05      13.2662     -135.733 
-6.48590e-05      10.0999     -98.0807 
3.35605e-05      7.86176      18.3883 
-0.000118671      11.8941     -134.796 
-9.08806e-05      5.49800     -138.541 
3.33080e-05      7.44407      34.1578 
0.000366217      12.0845      57.5711 
0.000432917      8.95378      25.8199 
6.42176e-05      13.6647      47.9068 
-0.000197890      6.13247     -77.1898 
-0.000298295      8.76079     -103.467 
-0.000191338      8.94807      137.716 
-0.000324339      8.10036     -22.1957 
-0.000195680      11.5367     -131.205 
-0.000144260      10.1868      75.9095 
0.000447526      14.1310     -133.795 
0.000272517      13.6361      47.9130 
-0.000138232      12.5404     -143.494 
-3.22230e-05      8.57987     -127.137 
-6.13130e-05      9.86082     -179.302 
3.19769e-05      9.68091     -32.7699 
6.18715e-05      7.48061      106.306 
-0.000388210      13.2807     -135.794 
-0.000193203      8.95145      28.8554 
6.04051e-05      9.05850      109.477 
-0.000164979      10.4042     -161.741 
0.000239971      10.9211      63.8117 
-3.15496e-05      8.12421     -16.7378 
3.15060e-05      7.41635      34.1210 
-0.000254710      8.90541     -161.402 
-0.000325443      10.3184      97.9085 
0.000113444      11.9491     -37.6550 
0.000192786      12.2277     -137.121 
-0.000117834      4.16824      3.57119 
3.10405e-05      7.38032     -127.182 
5.83297e-05      9.31359     -33.7912 
6.07965e-05      9.87405      118.953 
0.000185370      10.4927      112.411 
5.66957e-05      11.5358     -37.1084 
3.08331e-05      7.88028      18.3435 
-5.69954e-05      6.18062      135.394 
-5.65351e-05      9.74021     -179.647 
0.000392299      12.3460      137.757 
-3.04576e-05      10.2838      61.2918 
0.000536255      13.0532      38.4669 
5.87867e-05      4.92921      117.813 
-3.04185e-05      7.32423      122.171 
-3.03206e-05      4.46035      179.740 
3.02982e-05      7.88887      19.8569 
-8.63116e-05      10.4864     -23.7310 
-8.49409e-05      8.56765     -127.029 
5.86601e-05      9.90040     -76.3303 
0.000134728      10.0241      146.722 
-0.000181766      10.5520     -106.063 
2.96132e-05      12.3217      124.620 
2.95713e-05      10.0375      165.107 
0.000104892      5.50646      87.2975 
0.000153409      8.51961      114.698 
5.62315e-05      7.08888      33.3755 
2.93794e-05      9.70582     -139.682 
-2.92240e-05      9.86504      31.4025 
-2.92065e-05      4.41250      135.000 
-2.90607e-05      4.39053      31.5902 
-2.90259e-05      8.43951     -51.4436 
5.64224e-05      8.40408      53.3204 
0.000157302      7.33087      96.7366 
7.97194e-05      13.1011      40.1094 
2.88658e-05      7.38884      34.0758 
-0.000176774      8.65156     -167.314 
-2.86680e-05      6.71473      54.6990 
-5.43094e-05      11.2680     -143.010 
-5.64004e-05      10.2111     -85.5070 
8.10048e-05      9.98763     -75.7424 
-2.85246e-05      13.2940     -134.634 
-8.16396e-05      6.35825     -21.4021 
-0.000151707      8.65719     -68.5924 
-0.000219459      14.1321      46.3188 
2.83944e-05      4.81487     -33.8164 
0.000319327      9.88388      119.056 
5.50068e-05      7.89951      18.2973 
-0.000101464      9.88401      96.5083 
-0.000107173      13.0140     -133.755 
2.82635e-05      10.9847      142.547 
5.44461e-05      12.2845      38.4548 
2.80210e-05      6.50149     -33.1985 
5.49567e-05      9.74298     -47.9938 
5.36417e-05      7.33971     -127.026 
-0.000318164      7.99538     -109.433 
0.000174574      9.10821     -85.4637 
0.000106011      10.5591      114.866 
0.000212567      8.69498      163.567 
8.85390e-05      9.75393      72.4572 
-0.000100648      9.12303      44.2002 
-2.75853e-05      9.85657     -11.4699 
-2.75705e-05      4.41983     -179.737 
2.75379e-05      7.50006      106.263 
0.000263329      11.6870      46.8030 
-0.000174401      10.3799     -99.4242 
-7.17723e-05      6.62937      145.445 
2.73804e-05      7.97338      3.30725 
-5.34433e-05      9.83626      86.7375 
-0.000394407      13.3543      43.5429 
-0.000169315      9.53845     -40.0664 
7.81931e-05      8.43729     -80.4472 
-7.36909e-05      10.2744      61.3872 
-5.21685e-05      8.09273     -22.0628 
0.000100383      9.05177      109.356 
-0.000460656      10.2127     -85.3937 
5.08013e-05      5.66847      52.8874 
-9.46519e-05      10.7837      39.5054 
9.90712e-05      10.9810      142.399 
5.05854e-05      10.0179      165.077 
2.68043e-05      8.81077     -92.8607 
-2.67479e-05      9.66322      178.460 
2.67160e-05      6.37284      86.4018 
-0.000141712      10.4685     -23.7740 
5.18208e-05      7.36113      34.0384 
-0.000146171      5.83665      101.465 
-0.000347100      10.7482     -44.5474 
0.000149692      4.91979      117.605 
-2.61564e-05      4.73685     -4.84354 
2.61712e-05      9.97301     -75.6009 
-0.000119424      4.16955      3.84906 
-0.000298476      8.54366     -60.5553 
0.000185117      7.95316      3.31567 
7.47106e-05      12.3154      124.411 
-0.000139230      11.2697      57.8316 
-0.000375201      8.78049     -103.437 
2.59875e-05      5.92162      162.911 
4.89183e-05      9.32981     -33.7246 
-2.58392e-05      9.88234      31.3413 
7.31783e-05      7.77837     -61.2616 
0.000163299      10.4893      112.654 
-7.17042e-05      7.67311     -15.8861 
4.80968e-05      12.2686      38.5137 
0.000186928      10.8025     -110.481 
2.53563e-05      8.42034      53.4028 
2.53276e-05      7.49441      106.114 
0.000267053      11.2596     -150.293 
7.93179e-05      11.1892     -155.726 
0.000318177      8.33297     -119.950 
-9.54322e-05      10.3482      41.0808 
4.74786e-05      7.91804      18.2529 
-9.41522e-05      9.83265     -175.334 
-4.84689e-05      4.41978      180.000 
-7.06784e-05      10.8061     -70.0903 
9.70211e-05      10.7867      116.424 
2.47856e-05      4.08477     -139.366 
4.88743e-05      8.36159     -1.09528 
2.46850e-05      9.00016     -157.251 
-0.000345638      9.85574      86.7439 
-4.74266e-05      8.65083      144.693 
0.000131085      10.6041      159.001 
4.85024e-05      9.91772     -74.5631 
6.87455e-05      6.37415      86.2200 
-9.39875e-05      12.5567     -143.549 
9.42543e-05      8.63651      36.5244 
6.93890e-05      7.33300      33.9958 
-0.000109641      8.11967      95.6537 
0.000106055      9.72943     -48.0824 
8.76290e-05      5.03617     -133.714 
-8.75794e-05      13.0275     -133.817 
-2.40442e-05      8.57714      72.4956 
0.000305861      12.2552     -137.117 
-2.40033e-05      9.83745     -11.4925 
-0.000173007      8.87976     -161.484 
8.87911e-05      8.44055     -80.3166 
2.37646e-05      10.2557     -155.333 
6.46492e-05      9.74785      72.5707 
-4.58880e-05      8.64347      136.404 
9.10724e-05      8.38185     -1.09263 
-4.39137e-05      5.84071      101.659 
6.79232e-05      10.5506      114.766 
-0.000102783      10.1672      75.8817 
-4.56326e-05      11.9360     -134.865 
-4.41128e-05      6.36978     -21.1659 
-4.58734e-05      11.9681      40.7973 
-0.000105328      8.92393      28.8043 
-8.50605e-05      6.14795     -77.4090 
0.000102776      9.88770      113.608 
8.84773e-05      12.3044      124.336 
-0.000127180      10.4483     -161.704 
-2.29955e-05      7.26002     -179.840 
-2.30222e-05      5.37856     -22.7515 
2.29359e-05      9.90361     -74.4190 
0.000149712      10.7779      116.563 
-0.000125851      12.4150     -145.567 
-2.28114e-05      6.30803      73.2335 
8.62874e-05      9.02976      101.757 
0.000101434      3.32275     -33.2056 
-0.000144932      1.82817     -160.182 
-8.31653e-05      6.63837     -115.331 
-4.29112e-05      11.2151      134.637 
2.25484e-05      9.34643     -125.596 
-2.24733e-05      8.55196      72.5794 
0.000234253      12.4375      145.416 
-2.23605e-05      5.51094     -138.389 
0.000201973      6.83354     -63.2070 
8.68574e-05      10.5464      19.8441 
8.41814e-05      8.77629     -174.771 
0.000295629      9.12841     -85.4738 
0.000124771      7.78579     -61.4614 
-0.000179579      8.39775      78.1820 
2.21149e-05      13.6497      47.8498 
-4.33775e-05      5.37075     -22.5521 
-0.000144531      12.6003     -143.585 
-2.18763e-05      8.63833     -68.5433 
2.18556e-05      9.98284     -75.8509 
0.000368090      13.3366      44.5760 
-2.17001e-05      8.81682      67.7395 
-4.26618e-05      12.9611     -46.8768 
-6.28674e-05      10.4120     -56.2790 
-8.05033e-05      6.50618     -131.137 
-9.82528e-05      9.10851      44.2891 
0.000140231      12.3316      137.696 
-0.000101075      10.3369     -32.2756 
0.000177038      8.42126    -0.954756 
4.04409e-05      9.01885     -157.301 
0.000158949      13.6216      47.8579 
-6.21002e-05      11.9814      40.8706 
-5.59565e-05      8.74621     -104.702 
-2.12831e-05      4.73518     -4.59926 
-0.000154611      10.3969     -164.949 
4.11985e-05      10.0464      146.943 
4.18776e-05      9.34808      57.2297 
-2.12989e-05      8.51533     -115.901 
4.03592e-05      7.31239     -126.996 
2.12476e-05      8.65220      36.4475 
5.82292e-05      12.2971      38.5288 
5.98070e-05      7.40812     -92.6300 
-0.000117203      8.55782      72.4548 
4.15030e-05      5.48533      87.4910 
4.19467e-05      9.88482     -74.3886 
-2.11513e-05      10.3196      41.0699 
4.03112e-05      7.78210      91.3261 
0.000116816      11.7324     -127.241 
-0.000152577      10.7940     -69.9526 
0.000176224      6.23782     -118.535 
-4.14508e-05      9.83102     -175.451 
7.99512e-05      3.69085     -78.7449 
-4.12593e-05      10.2922      61.4412 
-8.06421e-05      10.0649     -119.265 
4.08500e-05      13.1666      135.309 
2.08943e-05      12.2930      124.259 
3.89973e-05      10.9393      63.8585 
-0.000154656      9.49720     -157.595 
0.000113996      10.5902      116.954 
2.07186e-05      12.3091      124.207 
-2.07443e-05      7.31386      122.042 
2.06783e-05      9.06900      2.52765 
9.84907e-05      11.7157      46.7986 
4.09063e-05      3.53440     -34.8575 
2.06269e-05      10.2741     -155.380 
-4.02094e-05      8.77447      78.5613 
-0.000156565      13.3909      139.482 
2.05361e-05      11.2427     -150.244 
-3.91725e-05      9.52591     -39.9766 
-0.000171950      13.3088     -135.790 
5.80416e-05      9.04507      109.235 
-5.85370e-05      11.9784     -134.931 
0.000283274      10.5647      19.8082 
-2.04174e-05      6.37090     -113.107 
7.63570e-05      5.72767      172.578 
2.03793e-05      11.8677      36.9866 
-0.000113964      10.4579     -23.9166 
3.88766e-05      7.30550      33.9496 
-0.000226813      11.1933      61.9695 
0.000114796      4.11489      25.3174 
-0.000263444      13.8555      42.8360 
5.81374e-05      10.5601      114.626 
7.63272e-05      12.7996      135.696 
3.96492e-05      12.2978      124.129 
2.00113e-05      11.5590      62.1507 
-9.31132e-05      9.81082     -175.442 
1.99809e-05      10.4993      111.923 
-1.99335e-05      11.5501     -131.281 
-0.000167843      11.7512      29.5738 
-3.85543e-05      8.64576     -68.4184 
5.76802e-05      11.7992     -41.7724 
1.98725e-05      9.66090     -32.1445 
5.82329e-05      11.7871     -136.994 
-3.87982e-05      5.36330     -22.3596 
-7.52736e-05      11.2424      57.8661 
-0.000185306      12.5840     -143.531 
-3.87934e-05      8.94947      137.899 
-0.000112342      10.4060     -56.1277 
-0.000111103      8.94822      12.3917 
3.80879e-05      7.76865     -61.3926 
-5.69422e-05      6.74041     -81.1239 
7.61446e-05      10.5033      111.681 
1.95254e-05      9.35906      57.1254 
7.45183e-05      3.51296     -35.5064 
9.26915e-05      11.5499      62.2363 
-0.000111937      13.3830      43.5460 
3.82860e-05      7.49748      105.630 
-5.62394e-05      11.7909      131.287 
-1.94306e-05      4.17096      4.12674 
1.93549e-05      11.9323     -37.2360 
-7.19226e-05      10.7459      17.9946 
-3.76730e-05      11.9528      40.8607 
-3.84361e-05      6.49287     -131.003 
1.93679e-05      11.8521      37.0433 
-1.93539e-05      8.54241     -115.964 
9.21416e-05      10.0681      99.8358 
-3.72655e-05      11.5630     -131.353 
-3.81798e-05      9.62737      79.9496 
-3.69699e-05      1.80179      171.063 
7.39475e-05      11.3616      55.4724 
0.000146887      11.2697     -150.204 
-0.000144423      8.86055     -161.442 
-1.91606e-05      10.5466     -105.962 
-9.19434e-05      9.89026      69.7681 
-7.40560e-05      10.4924     -161.667 
-1.90443e-05      3.53531      171.873 
1.89858e-05      10.0523      147.102 
1.89284e-05      9.87059     -74.2479 
3.64589e-05      9.94477     -91.8420 
1.88684e-05      11.9200     -37.1584 
-1.88267e-05      6.60780      145.110 
7.23710e-05      9.87568      119.212 
1.88431e-05      7.07259      33.4625 
1.88069e-05      11.4530     -125.186 
-5.50028e-05      10.0745     -119.362 
-7.28783e-05      13.2545      48.9758 
1.87446e-05      11.8237      37.0241 
1.87498e-05      8.93555      25.8765 
-1.86882e-05      13.8361      133.477 
-0.000126267      7.93561     -119.602 
7.21546e-05      8.66737     -144.770 
9.01481e-05      12.3324      137.826 
3.66161e-05      12.8966     -137.577 
-3.61445e-05      1.78178      170.962 
-5.38427e-05      9.77250      79.8636 
-3.61185e-05      10.1339     -13.3489 
-5.37086e-05      8.79947     -103.407 
-1.84755e-05      11.9806      142.461 
-3.64800e-05      13.3778      139.548 
-5.39822e-05      10.1128     -121.742 
-3.62691e-05      5.37440     -22.0777 
-5.43770e-05      13.8496      133.536 
-1.83981e-05      13.0415     -133.881 
-3.59239e-05      10.7399      17.8957 
-3.60599e-05      12.6066     -43.2634 
-1.82316e-05      8.89744      28.7547 
5.40467e-05      11.7595     -136.999 
-5.37582e-05      12.0203     -135.000 
3.65452e-05      6.59597     -155.458 
0.000143732      11.7018      46.8709 
-3.59060e-05      10.5714     -106.033 
3.61148e-05      7.04494      33.4209 
5.33956e-05      10.5702      114.480 
5.36470e-05      6.25562     -118.446 
1.81750e-05      11.9078     -37.0808 
1.81804e-05      8.19464      58.6781 
5.27213e-05      3.74333     -83.5545 
-3.58424e-05      8.80201      140.993 
5.33850e-05      10.5066      111.436 
1.81150e-05      14.1175     -133.738 
-0.000133092      9.31053     -73.7838 
1.80671e-05      7.49205      105.481 
5.33747e-05      13.5935      47.8616 
1.80346e-05      9.26981      103.854 
1.80372e-05      11.7977     -41.9062 
1.80484e-05      9.65014     -32.0427 
-3.48800e-05      6.64674     -115.483 
-5.33986e-05      13.3932      139.604 
1.78950e-05      9.89583      113.715 
3.55436e-05      8.93317      36.0748 
1.78740e-05      12.6452     -136.024 
-1.78790e-05      8.96396      137.982 
3.55013e-05      13.3221      44.6372 
1.78183e-05      12.0173     -37.7658 
1.77705e-05      8.71442      163.605 
3.46049e-05      4.03859     -145.285 
-3.53259e-05      9.30490     -73.9035 
1.77341e-05      11.1157      54.5954 
1.77257e-05      8.75686     -174.759 
-1.77155e-05      10.4174     -56.0352 
1.77115e-05      6.84235     -63.0612 
1.76824e-05      13.0374      38.5223 
1.76079e-05      13.1067      140.823 
1.76310e-05      8.46071    -0.813084 
8.73241e-05      11.7885      57.1182 
-6.99112e-05      8.42174      78.0753 
3.46448e-05      5.85464     -82.1472 
1.75609e-05      12.7851      135.633 
-1.74913e-05      13.2394     -49.7196 
3.44294e-05      7.38698     -92.4802 
1.75065e-05      7.77716     -86.1661 
1.74876e-05      10.5932      158.861 
1.75107e-05      7.93368      3.32382 
-1.74941e-05      14.1181      46.3783 
-1.74716e-05      11.2197      61.9284 
-1.74851e-05      9.47847     -157.548 
-1.74677e-05      11.5764     -131.429 
1.74908e-05      11.2772      60.3440 
9.82488e-05      13.3510      44.5150 
-0.000113242      10.9163     -139.011 
0.000162607      9.44145     -114.667 
9.23061e-05      9.65257     -21.5169 
-0.000126432      13.5407     -139.132 
-3.71573e-05      10.3608     -32.0648 
-0.000160592      11.2472      61.8859 
0.000108821      14.2840     -134.432 
-3.63362e-05      9.81760     -11.5161 
-5.50593e-05      12.3242      143.445 
5.45437e-05      12.6349      141.876 
3.69920e-05      11.7961     -42.0452 
8.86649e-05      8.73485     -174.879 
-1.85162e-05      11.8294      131.642 
-5.28818e-05      8.77836      78.4365 
7.08142e-05      7.77649     -61.5877 
3.60269e-05      9.01952      109.160 
3.56859e-05      10.1485      164.101 
-3.57596e-05      9.17389     -80.9691 
6.94702e-05      11.8399      36.9650 
-5.27232e-05      10.6772     -148.871 
3.54628e-05      8.40318      114.613 
5.25166e-05      6.61441     -155.531 
3.55129e-05      9.76006      72.3438 
5.26565e-05      7.36673     -92.4870 
-5.24707e-05      1.84724     -160.395 
-5.25586e-05      8.33070      40.2285 
3.48813e-05      12.2144      55.9458 
-3.46620e-05      11.4366     -39.5370 
5.14463e-05      7.03380      33.2832 
-5.27024e-05      12.2559      53.0936 
1.74791e-05      9.64631     -31.7786 
-1.81892e-05      10.3774     -32.0076 
-5.21783e-05      9.32436     -73.9381 
-5.22615e-05      12.3405      143.501 
-3.45605e-05      9.80929     -175.556 
5.14601e-05      3.96463      74.4881 
1.74408e-05      11.8555      36.9083 
3.44161e-05      6.40232     -107.074 
-3.42015e-05      7.26010     -179.686 
-1.73014e-05      3.51599      171.828 
-1.72935e-05      7.96955     -109.344 
-1.71958e-05      9.64479     -27.9487 
-1.71565e-05      9.09402      44.3782 
1.71228e-05      13.4227     -133.974 
1.70868e-05      9.63940     -31.9406 
1.70192e-05      11.1644      30.7002 
-1.69374e-05      9.15388     -80.9492 
-1.68819e-05      8.83561     -161.527 
-1.69119e-05      10.3787      61.9546 
-1.67771e-05      9.66269     -27.8924 
1.67748e-05      14.2849     -134.319 
1.67586e-05      14.1726     -46.0297 
-1.67710e-05      7.05773     -147.619 
! Tentative model.
! Flux (Jy) Radius (mas)  Theta (deg)  Major FWHM (mas)  Axial ratio   Phi (deg) T \
! Freq (Hz)     SpecIndex
-1.73254e-05      10.3604     -32.0640 
