! Center RA: 12 21 31.69052,  Dec: +28 13 58.50022 (2000.0)
! Established model.
! Flux (Jy) Radius (mas)  Theta (deg)  Major FWHM (mas)  Axial ratio   Phi (deg) T \
! Freq (Hz)     SpecIndex
  0.114917      0.00000      0.00000 
 0.0430115    0.0300155      180.000 
0.00918868    0.0424483      135.000 
0.00702665    0.0671167      116.565 
 0.0240259    0.0300155     -90.0000 
 0.0138466    0.0900464      90.0000 
 0.0170458     0.120062      90.0000 
0.00218670     0.212241      81.8699 
 0.0114565     0.240124      90.0000 
0.00422966    0.0600310     -90.0000 
0.00745204    0.0949173      108.435 
 0.0199798    0.0671167     -63.4349 
0.000679552    0.0848966      135.000 
0.00810217     0.241993      97.1250 
0.000503169     0.276729      102.529 
0.00293583     0.379669      108.435 
0.00398255     0.390201      112.620 
0.00553058     0.150077      90.0000 
0.000170482     0.351322      109.983 
0.000966060     0.284752      108.435 
0.00247054     0.123757      104.036 
0.000139786     0.295618      113.962 
0.00224894     0.256452      110.556 
0.00492495     0.408255      107.103 
0.00189908     0.268467      116.565 
0.00146194     0.607026      98.5308 
7.74412e-05     0.228591      156.801 
0.000477489     0.256452      159.444 
0.00389194      1.10049      107.459 
0.000332283     0.283165      122.005 
0.000531934     0.429756      102.095 
0.000464565     0.636724      98.1301 
0.000317147     0.247514      165.964 
6.81885e-05     0.210108      90.0000 
0.000890626     0.633177      95.4403 
0.000182858     0.459149      101.310 
0.000217221     0.589711      104.744 
0.000176864     0.598054      107.526 
0.000378856     0.560735      105.524 
0.00320599     0.569504      108.435 
0.00133916     0.268467      153.435 
0.000461239     0.666452      97.7652 
0.000212102     0.700718      99.8658 
0.000201728     0.735839      101.768 
6.66882e-05     0.886169      113.982 
0.00100695     0.925918      114.924 
0.000299651     0.730308      99.4623 
0.000293020     0.189835      71.5651 
0.00194256      1.28826      117.774 
0.000599323     0.175019      59.0362 
5.47264e-05     0.770966      103.509 
0.000200597     0.309028      119.055 
0.000103295     0.663064      95.1944 
0.000364241     0.764512      101.321 
0.000142452    0.0671167      153.435 
0.000530927     0.295618      156.038 
0.00126494     0.150077      53.1301 
0.000288330     0.913675      113.217 
0.000171704     0.350038      120.964 
0.000411163     0.309028      150.945 
0.00104745     0.108222     -56.3099 
0.00170661      2.88434      116.565 
0.000391019     0.108222      146.310 
3.96614e-05     0.376093      118.610 
0.000278928     0.631039      92.7263 
0.000277041     0.391354      122.471 
7.30978e-05     0.800182      103.007 
0.000364846     0.953222      114.164 
0.000171482     0.579695      111.251 
0.000264244     0.661022      92.6026 
0.000155602     0.793965      100.896 
9.33019e-05     0.618785      112.834 
3.23424e-05     0.216445      56.3099 
0.000422478      1.32886      118.316 
0.00123276      2.30842      117.890 
3.04639e-05     0.234428      50.1944 
0.000572861     0.965897      115.789 
0.000161907     0.408255      126.027 
0.000138387     0.258203      54.4623 
5.58802e-05     0.631039      115.346 
0.000312783     0.752186      118.610 
0.000121926      2.32261      118.544 
0.000534232     0.633177      148.570 
0.000900468      4.21200      108.693 
2.57740e-05     0.424483      98.1301 
0.000166770     0.108222      56.3099 
0.000229912     0.630325      90.0000 
0.000311505      9.49292      111.702 
0.000821555      1.30251      118.942 
0.000136649     0.276729      49.3987 
4.81128e-05     0.421287      94.0856 
0.000831426      9.11227      115.130 
0.000233206      3.08702      124.312 
0.000474294    0.0949173     -71.5651 
0.000402773     0.342229     -15.2551 
0.000322741      9.71235      110.619 
0.000395326      1.49316      112.454 
0.000103566     0.420217      90.0000 
0.000440810      9.53192      111.803 
6.47641e-05      2.32590      120.197 
0.000565502      3.59580      116.779 
0.000363728      3.07943      125.088 
0.000195014      2.33111      121.843 
7.24951e-05     0.426600      129.289 
0.000258229     0.660341      90.0000 
0.000636199      10.5120      111.953 
0.000231930      1.54848      121.526 
0.000190271      3.83338      112.549 
0.000160272     0.284752      161.565 
0.000143630      4.02486      102.479 
0.000162983      9.84409      111.641 
0.000415163      2.84410      116.295 
7.19478e-05      9.96851      116.642 
0.000303249      10.8879      113.033 
4.99027e-05     0.421287      85.9144 
0.000272771     0.979329      117.370 
3.54490e-05      3.95660      107.198 
5.06748e-05     0.300155      36.8699 
0.000449432      2.34709      122.466 
0.000349334      10.1130      110.856 
0.000256733      9.98201      116.796 
0.000181227      3.93698      107.744 
0.000210049      9.67370      110.515 
0.000294382      4.01848      102.061 
0.000178560      9.11967      111.418 
5.47147e-05      11.0634      114.342 
0.000170817      11.0908      114.278 
0.000155773     0.658975      149.931 
0.000168832      9.35566      109.481 
2.91873e-05     0.324667      33.6901 
8.33877e-05      3.80568      112.722 
0.000179350      9.95522      116.874 
2.75593e-05     0.424483      81.8699 
8.16265e-05     0.661022      87.3974 
9.48014e-05      9.09956      114.959 
1.37017e-05     0.403817      131.987 
2.62711e-05     0.350038      30.9638 
2.62798e-05      9.94459      115.173 
1.29258e-05      10.1162      116.793 
0.000809163      6.63875      94.3172 
0.000364304      9.06558      125.935 
0.00100163      8.91654      122.263 
3.43943e-05      7.29017      113.610 
0.000557298      7.30874      113.546 
0.000417471      9.08139      125.862 
5.78451e-05      7.82107      110.194 
0.000173382      7.06618      116.203 
0.000148396      7.80206      110.246 
0.000205460     0.107434     -68.2729 
0.000162771      3.07340      124.928 
7.56670e-05     0.170734      159.414 
0.000167777     0.984957      119.182 
0.000148029      2.86253      116.565 
0.000137202      3.58642      116.855 
0.000124330      9.34335      109.640 
0.000296772      10.5256      111.984 
0.000220174      11.0903      114.394 
0.000220846     0.396866      130.860 
2.58282e-05      7.81410      110.055 
5.09911e-05      4.01324      102.373 
7.41014e-05      9.67003      110.457 
9.85995e-05      10.1249      116.768 
0.000261792     0.366905      29.3961 
4.97451e-05      3.81093      112.530 
4.93150e-05      1.53682      122.254 
0.000171754      10.1221      110.836 
0.000135722      9.88370      116.826 
2.50882e-05      5.33581      104.763 
9.67660e-05      9.10088      114.820 
2.49629e-05     0.253192      161.511 
4.89295e-05      3.92080      108.431 
4.86830e-05     0.640401      88.1870 
0.000104031      9.11416      111.497 
0.000234655      5.61237      103.390 
6.12087e-05      9.94044      115.122 
6.88120e-05      4.00894      102.090 
0.000172283      1.29746      118.536 
0.000177235      5.30835      106.862 
2.40139e-05     0.271765      162.816 
2.38875e-05      5.33087      104.560 
0.000247513      3.79223      112.648 
0.000783709      9.19864      103.069 
0.000296750      6.31206      126.107 
0.000341071      8.01383      101.954 
0.000389200      6.14090      118.820 
0.000403808      6.84236      96.3784 
0.000416054      6.32844      125.999 
0.000401718      7.99401      101.984 
0.000365622      6.75145      98.3462 
8.55645e-05      7.28238      113.469 
0.000114197      1.51561      112.502 
4.72727e-05     0.334882     -17.3387 
0.000143773      2.31669      117.237 
0.000189514      9.10675      111.379 
6.83219e-05      7.83243      110.006 
0.000109221      4.00220      102.991 
0.000149909      3.07896      124.414 
2.29009e-05      1.28036      118.953 
0.000242880      2.85352      116.201 
0.000148901      10.1522      116.819 
0.000215292      6.84456      96.5407 
0.000120708     0.101837     -78.5245 
6.25583e-05      9.85648      116.774 
4.25711e-05     0.993150      117.591 
0.000139538     0.329594     -14.0995 
0.000102666      9.70252      110.641 
2.20103e-05     0.654914      148.732 
2.18726e-05      9.52287      111.825 
8.07053e-05      3.98344      105.437 
0.000158499      9.10908      114.931 
4.25947e-05      7.84484      109.822 
0.000176861     0.672314      149.628 
6.23699e-05      1.00269      118.617 
7.93804e-05      6.15800      118.732 
8.29948e-05      9.86562      116.879 
0.000155552      9.38596      108.897 
8.02266e-05     0.266484      166.981 
4.02383e-05      1.54732      122.865 
5.90361e-05      7.85147      109.956 
2.03009e-05      11.0718      114.437 
3.87073e-05      1.52348      113.206 
3.80644e-05      3.90877      108.804 
5.79242e-05      4.00490      101.817 
1.99618e-05     0.271765      72.8159 
0.000112499      5.29490      107.136 
0.000159967      4.86163      114.037 
9.64981e-05      4.66033      117.337 
9.45176e-05      4.61283      111.891 
7.47737e-05     0.930615      81.3276 
3.73765e-05      7.07515      116.350 
9.38013e-05      9.90604      118.322 
0.000129817      9.09781      125.788 
7.42728e-05      10.5181      111.882 
3.78933e-05     0.975239      118.143 
1.89792e-05     0.286260      77.8948 
1.89709e-05      9.91399      118.169 
1.88459e-05      3.99243      104.799 
1.88355e-05      1.55841      123.491 
3.65916e-05      10.8800      112.934 
5.44677e-05      9.72836      110.707 
3.65609e-05      10.1610      116.917 
5.45108e-05      5.59340      103.436 
5.44539e-05      8.00981      101.817 
3.61185e-05     0.286260      167.895 
1.83456e-05      7.86390      109.772 
3.60412e-05      1.32496      118.888 
3.60280e-05      6.31700      125.856 
1.82747e-05     0.107434      68.2729 
3.59445e-05      4.00080      101.533 
3.58012e-05      3.29678      119.839 
3.57064e-05      9.89252      116.927 
1.79422e-05      1.53097      123.262 
1.79032e-05      2.69418      118.842 
1.77102e-05      2.35803      122.881 
-0.000744923      12.3121      126.946 
-0.000712874      10.2111     -160.072 
0.000389250      12.1078      46.0722 
0.000329712      4.16942     -49.2768 
-0.000692221      10.1829      45.6389 
0.000534811      4.15465     -49.1013 
-0.000478658      8.21922      157.990 
-0.000715798      9.45556      54.7308 
0.000497438      13.5201      138.720 
-0.000548250      3.69977     -108.924 
-0.000499716      10.9342     -35.6949 
-0.000707945      6.85463     -48.0706 
0.000643850      10.1124     -50.2957 
0.000599502      10.7224     -123.511 
6.02730e-05      12.8970      140.979 
-0.000389532      5.24133     -91.3126 
-0.000267242      8.83881     -134.911 
0.000374706      12.1219      46.0032 
0.000372977      12.9097      140.910 
-0.000474875      7.68354     -116.432 
-5.88895e-05      7.25607     -84.3024 
-0.000166413      5.19605      171.588 
-0.000576729      8.43098      129.127 
0.000170314      13.5049      138.663 
0.000318231      12.6528     -138.522 
-0.000312791      10.3575      26.3664 
-0.000270789      7.69645      86.2770 
0.000366251      7.88022      90.5838 
-0.000209776      8.21337     -101.093 
0.000209503      9.82604      79.4435 
-0.000309784      10.3383     -31.2291 
-0.000512941      8.50067      53.8038 
-0.000208304      7.25409     -84.4616 
0.000261372      8.58430     -12.5152 
-0.000159907      5.60093      61.8796 
-0.000108030      9.52674     -81.4295 
0.000353943      13.1445     -41.7927 
-0.000300377      7.86575     -114.807 
0.000204045      6.76273     -75.2668 
0.000252657      10.3228      152.543 
-0.000158255      7.21464     -93.6555 
-5.38685e-05      10.0031     -169.632 
-0.000104280      1.95020      13.0310 
0.000150252      7.68514     -119.634 
0.000248520      9.41578     -103.386 
0.000148827      9.10296      40.9020 
-0.000194524      6.26298     -109.594 
-0.000292222      10.1119     -78.2465 
-0.000196825      8.23731      158.041 
-0.000198087      10.1073     -9.79730 
-0.000145921      7.29358      140.900 
-0.000148854      4.33202     -151.304 
0.000147273      11.2088     -144.807 
0.000146410      4.67881     -174.847 
0.000144832      4.01706     -72.9122 
0.000556816      1.80680     -26.2777 
9.75025e-05      8.89890     -38.3369 
0.000144303      13.6726     -132.629 
-5.01401e-05      7.30873      140.997 
-0.000191059      7.02118      4.41326 
-9.78209e-05      12.3824      139.389 
-9.75735e-05      13.2309     -131.689 
-4.97422e-05      9.42815      154.086 
-0.000144535      7.21338     -93.4949 
-0.000190862      8.92158     -127.897 
-0.000144616      7.71865      85.9862 
-9.63124e-05      12.3238      127.019 
-0.000189570      6.34096     -124.597 
-9.58951e-05      10.5437     -120.555 
0.000598240      8.33865      19.9139 
4.88263e-05      1.66358     -62.8108 
4.86579e-05      2.84049     0.802240 
-9.52232e-05      5.26158     -91.3075 
9.54431e-05      11.8214      132.327 
-9.48041e-05      9.08524     -24.3084 
-4.81055e-05      9.47637     -97.2741 
-9.39176e-05      11.3561     -44.7858 
-4.78985e-05      5.59177      62.0560 
9.47569e-05      10.9852      62.4547 
4.76179e-05      6.49146      3.35324 
9.27429e-05      8.58855     -12.6423 
-4.73172e-05      6.79276     -93.5467 
9.26659e-05      6.78492      173.402 
4.67199e-05      9.24568     -167.889 
-4.66121e-05      7.39812     -35.5343 
-9.21664e-05      9.80465      91.7543 
4.64573e-05      7.96051     0.577907 
4.59532e-05      9.41931     -64.1964 
-4.58360e-05      9.86240      125.590 
4.57780e-05      1.67259     -62.2163 
-9.57157e-05      10.1594     -121.311 
-4.56043e-05      13.7900     -134.235 
-4.54853e-05      7.72004      85.8418 
0.000236294      9.35495      168.282 
0.000222037      7.96073     0.718320 
0.000207527      9.33926      168.135 
-0.000928912      6.11261     -171.152 
-0.000722278      9.39364     -72.5305 
-0.000483582      7.26218      140.699 
0.000229884      7.34042      45.9940 
-0.000243858      10.8454      32.9589 
0.000546042      9.27208     -36.8476 
0.000152780      8.83302      81.6668 
-0.000302476      9.46666     -24.9969 
-0.000368797      6.61219     -53.8584 
0.000194991      9.56991      94.5558 
0.000235438      1.82499     -25.9961 
0.000314716      7.94047     0.720153 
-0.000267368      10.4337     -60.4851 
9.74363e-05      9.43314      168.998 
-0.000190239      10.8975     -158.803 
-0.000268156      3.33632      54.0219 
-0.000185710      6.89664      147.553 
-9.56898e-05      4.64358     -27.9979 
4.93125e-05      8.50367      166.258 
4.91215e-05      1.24505     -119.856 
-0.000317741      8.40094     -154.776 
0.000368560      10.9579      62.4997 
-0.000215933      1.96568      12.3438 
0.000134894      3.29582     -46.2361 
-0.000434323      10.2742      175.312 
-0.000244149      4.63528     -28.3366 
0.000136443      1.25526     -120.658 
0.000372913      8.85306      81.6858 
-0.000363760      6.08791      36.7216 
-0.000312522      7.27787      140.800 
0.000275218      9.54887      94.4439 
0.000230130      8.54712      166.189 
8.51399e-05      3.38565     -51.2351 
-0.000190697      10.0608     -11.4650 
4.52677e-05      7.96101     0.864124 
-4.50320e-05      8.27608      143.353 
-0.000127015      4.58142      151.865 
0.000203920      11.8080      129.433 
-8.45056e-05      10.4919      104.010 
-4.44559e-05      8.99223      33.0191 
0.000431701      12.7066     -39.2506 
-0.000163261      11.1984      132.322 
-0.000247034      5.45336      34.3920 
-8.61996e-05      3.03611     -109.626 
0.000239472      11.3414      125.959 
-0.000227569      5.93145     -124.975 
4.36114e-05      12.1196     -51.7685 
-4.35312e-05      9.48502     -24.9451 
-0.000219025      10.8902     -158.902 
-0.000297302      4.68679     -26.3476 
-4.32919e-05      10.1420     -96.3421 
4.32731e-05      9.45303      169.022 
-4.30161e-05      4.74518     -54.4349 
4.28767e-05      8.83586      81.5417 
0.000303032      8.43463      153.679 
-8.37879e-05      8.98632      33.1978 
-0.000159594      3.69349     -108.637 
-0.000118478      4.41685      167.978 
-0.000185166      8.28013      143.542 
-0.000110978      10.0241     -146.722 
-0.000226349      10.8284      33.0172 
-0.000152969      10.7667      19.6460 
0.000495306      7.30893     -158.492 
0.000121933      8.31960      19.9615 
0.000119560      12.0912     -51.7845 
0.000442714      1.27273     -120.193 
4.14769e-05      9.32420      167.993 
-0.000183945      10.1622     -96.3294 
-0.000189047      10.5251      133.460 
-4.08792e-05      10.8278      48.7453 
4.07788e-05      12.0344     -125.803 
0.000194630      8.73875      63.7870 
4.06072e-05      3.53346     -56.3099 
0.000140741      9.56832      94.4349 
-4.04095e-05      3.97545     -16.0642 
-4.02305e-05      6.88579      147.695 
7.76976e-05      9.44919      169.142 
0.000213426      10.4652      66.8138 
0.000179603      7.20083     -117.278 
0.000179138      6.74854      171.824 
-0.000154115      4.77344     -54.3786 
-0.000259759      3.02961     -109.279 
-0.000184614      9.63972     -132.561 
0.000141706      7.94075     0.866329 
-0.000226034      6.59645     -53.7584 
-3.92106e-05      10.8260      48.5940 
-3.90342e-05      6.56381     -57.5690 
-7.54299e-05      8.84206     -71.4021 
0.000234363      12.0458     -125.878 
7.48321e-05      6.75760     -75.4329 
0.000633910      12.0558     -50.1816 
-0.000241004      9.00329      33.1272 
-0.000238462      5.96925      145.515 
-3.81590e-05      8.86088      34.9821 
7.25649e-05      3.98095     -48.4615 
3.78897e-05      5.34069      1.07075 
0.000103742      3.28235     -46.4821 
0.000498160      12.4456     -125.912 
0.000167220      8.90583      42.1792 
0.000419515      8.24110     -61.7572 
-7.24110e-05      4.75699     -54.2364 
-9.79290e-05      3.98111     -16.3444 
0.000204300      10.9977     -155.159 
-0.000191201      9.83873     -116.303 
-7.00717e-05      6.90292      147.785 
0.000105441      12.0428     -50.2557 
-0.000437190      10.8126      48.6746 
-3.67501e-05      8.55208     -52.8918 
-0.000544514      10.1180     -77.5583 
-7.18478e-05      3.35274      54.2253 
-6.78697e-05      1.55541     -8.12619 
-0.000224205      12.0633     -45.0680 
-0.000289661      3.68707     -108.339 
-0.000136869      9.08902     -25.5496 
0.000165129      5.58171      169.050 
0.000309971      11.7602      126.286 
-0.000186410      10.8211      133.876 
0.000167890      10.3403     -126.424 
0.000414033      12.4706      132.596 
-0.000216388      11.6512     -120.880 
-0.000182239      4.87226     -6.59745 
0.000165705      6.59229     -136.476 
0.000167132      8.85591      81.5609 
0.000496085      10.8794     -38.2809 
0.000280353      11.8649     -52.3974 
0.000157589      9.46909      169.166 
0.000302577      11.3572      125.901 
-3.54697e-05      6.18485      92.2250 
-6.82240e-05      8.35640     -52.3913 
0.000100709      9.10430      80.5167 
9.95783e-05      8.04954      16.4516 
3.48351e-05      6.85187     -150.445 
-9.81593e-05      8.83561     -71.5266 
6.79896e-05      5.34036     0.861465 
3.47660e-05      9.82874     -126.309 
6.81128e-05      11.6285      36.3952 
0.000122631      9.30439      167.967 
0.000375671      10.0184     -108.146 
6.65342e-05      7.99361      3.29887 
-0.000155324      10.3588     -102.828 
0.000323065      10.9673      62.4058 
-6.57655e-05      1.98475      12.2234 
-0.000148680      6.42020      72.4143 
0.000431571      6.73800     -75.3896 
0.000351257      11.1985     -41.0877 
-0.000230731      7.23984     -90.3147 
-0.000126743      6.18564      92.4056 
-0.000148395      3.36463      53.9454 
-3.34944e-05      8.25983      143.270 
-9.46416e-05      1.41392      64.8766 
-3.32328e-05      6.55297     -57.7185 
0.000342414      8.41647      153.618 
-3.31529e-05      10.8065      133.951 
-0.000171897      9.65343     -132.650 
6.45924e-05      11.1313     -30.2053 
-6.43711e-05      11.0035      39.9096 
0.000117541      11.8204      129.506 
-0.000399502      9.37424      141.931 
-0.000221632      10.1767     -121.252 
3.23654e-05      6.13825     -64.9387 
0.000142108      9.26114     -38.7736 
0.000119313      11.6122      36.4545 
-0.000112498      8.38262     -154.717 
0.000202643      6.82898      168.856 
-0.000119414      10.7477      19.6823 
0.000227679      7.29348      160.622 
0.000146187      10.0840     -126.939 
0.000361970      13.3932     -40.3962 
3.16522e-05      5.52694      2.90281 
-0.000268124      7.58026      134.783 
-0.000190738      6.88452      4.83314 
0.000570278      13.1575     -129.448 
0.000411666      9.52997      33.3560 
-3.11549e-05      14.0008     -45.3474 
-6.01252e-05      10.1872     -121.350 
0.000116737      9.34103     -156.398 
6.11251e-05      11.1488     -30.1529 
0.000235367      5.32085     0.864624 
-5.97693e-05      8.36878     -52.2814 
3.07151e-05      5.96247      178.464 
-5.95637e-05      9.99811      21.2265 
8.73486e-05      9.10766      80.3910 
-0.000348286      8.81123      135.645 
-3.03583e-05      8.29644      143.626 
-0.000112450      9.09778     -25.6647 
-0.000299178      6.06659      129.514 
0.000101434      11.6285     -141.495 
3.00892e-05      5.52595      2.69300 
-0.000162142      5.82207      119.648 
0.000110173      8.85890      81.4313 
0.000108638      6.60625     -136.348 
0.000113219      7.30061      14.7618 
-5.77848e-05      11.8211     -30.1653 
-2.98505e-05      10.3806      70.4111 
-2.97960e-05      10.8120      33.0735 
-5.77683e-05      4.89239     -6.57019 
-0.000219357      11.8489     -143.786 
-2.96608e-05      5.91986     -124.814 
0.000111795      13.4937      47.8219 
-0.000327862      12.7163     -143.635 
-5.78360e-05      7.78372      122.832 
0.000155495      5.56182      10.9901 
0.000188424      10.9708     -155.211 
2.94823e-05      12.2568     -42.7522 
-0.000119316      11.0018      67.4439 
0.000131865      7.19157     -117.135 
0.000183005      11.1411     -30.2920 
-0.000208781      4.86565     -63.6404 
-0.000294073      11.9394     -59.0535 
0.000152036      10.3681     -126.450 
-5.52185e-05      5.28830     -151.784 
-5.48433e-05      14.0150     -45.2885 
-2.88240e-05      6.07950      129.662 
-0.000162287      9.32852     -97.8876 
-0.000108831      10.1833      70.8534 
0.000142241      4.60870     -165.421 
-0.000104086      11.8162     -38.4041 
-0.000196681      10.8830     -159.002 
5.29618e-05      8.03011      16.4926 
9.40872e-05      5.50646      2.70254 
-0.000154730      10.6446      67.5768 
0.000141898      12.2431     -42.6826 
-5.58252e-05      10.8384     -24.5316 
5.41437e-05      5.82123     -79.3100 
-2.84324e-05      1.53343     -7.50756 
-2.83775e-05      8.86055     -71.4423 
7.15825e-05      6.86885     -150.525 
-0.000131846      6.18652      92.5931 
7.31662e-05     0.344213     -125.596 
0.000234535      10.8611     -45.2995 
0.000245021      12.5442      44.6777 
0.000340502      13.1503     -50.8638 
-0.000257914      13.8031     -134.531 
0.000161091      10.5652      37.6944 
-0.000139681      8.72522      130.445 
-2.77948e-05      12.0696      32.1368 
7.83218e-05      4.63863      134.646 
0.000191088      12.0382     -51.9493 
-0.000104126      10.0072     -146.658 
-5.37745e-05      10.9906      67.3094 
0.000183212      7.92124     0.868463 
-0.000121068      11.9294     -59.1339 
5.42343e-05      1.92757     -59.4417 
-0.000237054      8.95994     -47.4403 
0.000230485      12.9017     -43.6190 
2.74769e-05      9.16163      81.4651 
-7.80132e-05      12.7443      37.2835 
-5.03442e-05      6.90868      148.014 
0.000224172      10.4364     -109.131 
0.000316347      12.7194     -39.3213 
0.000210810      8.00862      6.30996 
-0.000123196      8.24361      143.185 
2.72186e-05      5.56182      169.010 
0.000133613      6.05852      65.2125 
2.71804e-05      9.58703      94.3093 
-0.000101807      7.24984      140.818 
9.57998e-05      7.53809      81.7642 
0.000229061      11.8530     -52.4721 
-0.000123808      7.77276      122.707 
0.000164040      8.20383      66.4339 
-9.83380e-05      9.68860     -44.2469 
-5.15948e-05      5.47009      34.2721 
5.13840e-05      5.98148      178.656 
2.69843e-05      6.76859      171.848 
0.000138481      5.87438      49.6940 
-2.69920e-05      10.4634      103.825 
-0.000348131      10.7361      19.8192 
-7.47437e-05      10.5117      133.383 
-2.68368e-05      10.4364      70.8694 
-2.67584e-05      9.99106      21.1222 
5.20132e-05      11.2983     -40.1184 
-2.67372e-05      6.10416      36.6079 
2.66458e-05      5.71354     -45.0000 
-2.66432e-05      5.89715      135.134 
-4.88366e-05      4.58564      87.2518 
5.14609e-05      4.08946     -57.7884 
0.000123357      10.9759      62.5485 
7.57017e-05      9.24426      47.5430 
-0.000138506      6.98672     -106.465 
-0.000266782      8.04662      135.102 
-0.000736303      12.4919     -41.8833 
-5.05392e-05      8.79640     -134.813 
-0.000116594      7.26010     -90.3139 
-0.000132797      9.53339     -138.315 
-0.000171603      8.44048      129.423 
7.67009e-05      13.5087      47.8796 
-2.60972e-05      3.94865      132.736 
-0.000131125      6.30122     -31.3675 
-2.60697e-05      2.00040      11.5333 
0.000152619      12.0413     -126.013 
0.000140170      11.6406      36.4754 
7.13438e-05      10.2261      149.824 
0.000269477      12.2282     -42.7470 
-5.08838e-05      10.4298      70.9745 
-2.58341e-05      5.17384      71.9881 
-0.000113156      8.85412     -71.5666 
-2.57410e-05      12.2750      135.000 
0.000264286      9.06564     -44.5540 
0.000117302      9.15876      81.5858 
-0.000120844      9.30569     -97.7812 
-5.00157e-05      10.2131      102.785 
0.000105804      10.5388     -154.601 
-2.55375e-05      10.3778     -102.804 
-8.71877e-05      9.97287      21.1626 
-0.000189706      10.2861      26.8118 
0.000165231      12.2020     -125.930 
4.90914e-05      7.28175      14.8010 
8.70174e-05      5.54643      168.774 
2.53067e-05      7.47573     -18.2385 
2.52770e-05      10.8370      36.0653 
-6.38693e-05      6.13339     -174.010 
-9.31024e-05      9.45857     -74.1720 
-0.000165742      5.14856      72.1249 
6.59332e-05      9.77965      123.235 
7.20458e-05      9.35960     -156.448 
9.35909e-05      1.93795     -58.9259 
-0.000301532      13.6896     -44.8801 
0.000280484      10.5812      37.6273 
0.000109522      10.0881     -126.778 
-0.000115583      3.93544      132.527 
-7.13288e-05      10.2840     -148.194 
0.000134552      11.8048      129.568 
2.47847e-05      4.77995     -105.777 
2.47482e-05     0.355922     -128.150 
-9.19627e-05      12.1787     -139.060 
-2.45825e-05      10.4585      103.717 
0.000456404      13.5218      47.8183 
-0.000225870      8.83976     -84.5493 
2.45458e-05      8.98485      46.8952 
-2.44828e-05      5.30616     -151.887 
-4.81665e-05      11.1318      118.313 
2.44247e-05     0.766529     -74.8482 
-0.000112570      6.52508     -47.3629 
0.000203933      4.10662     -57.9391 
0.000190905      9.46530      169.286 
9.31026e-05      11.8809     -52.4570 
-0.000112891      6.11564     -170.971 
0.000111324      9.57636      51.3591 
-0.000178141      10.4490      71.0107 
-2.41705e-05      10.1793     -96.2040 
-4.73656e-05      10.2564      175.190 
0.000109178      7.46965     -18.0964 
-9.08949e-05      12.2612      135.064 
9.12828e-05      7.31862      160.523 
-2.39297e-05      1.40544      65.6244 
0.000228649      9.01349      46.8892 
-0.000130681      6.28393     -31.4636 
0.000113647      11.6794     -148.515 
-0.000154050      10.3823     -102.913 
0.000191468      12.4569      132.527 
2.38205e-05      11.1496     -151.736 
-6.91174e-05      13.9271      137.328 
0.000147397      11.5101      56.6974 
-8.68949e-05      10.1766      70.9612 
-8.49097e-05      9.38757     -72.6484 
0.000441676      11.1170     -30.4855 
2.35594e-05      9.60574      94.1797 
-0.000142537      13.6657     -136.422 
-4.59202e-05      9.33577      56.0059 
-4.44658e-05      9.66779     -132.572 
0.000130387      9.46407      172.350 
-0.000509152      13.7889     -134.471 
0.000129786      8.23365     -105.352 
-4.57312e-05      5.92527      135.139 
4.53446e-05      5.61997     0.612029 
0.000394292      13.3556      46.5777 
-0.000336296      12.1015      54.8918 
-0.000133372      6.81742     -56.1245 
0.000205144      8.84285      160.581 
0.000108867      11.3622      125.761 
-8.53398e-05      8.81025     -134.724 
0.000100375      10.2341     -42.5455 
8.99550e-05      8.25070     -61.6332 
-0.000166205      11.1414      118.405 
0.000124340      5.36279      10.0976 
2.30235e-05      10.8667     -141.125 
-2.30190e-05      8.13230      145.720 
-8.35436e-05      7.26555      140.919 
0.000162612      7.20961     -117.061 
2.29376e-05      7.00575     -123.825 
-0.000142992      10.8760     -159.098 
-4.46510e-05      6.18747      92.7805 
-6.30953e-05      11.2342     -116.200 
-2.28832e-05      9.98105      59.2741 
-4.45615e-05      5.70224     -124.133 
-6.57127e-05      2.50677     -85.8802 
0.000185955      8.39833      153.556 
0.000228024      11.1806     -144.832 
-8.06352e-05      5.48110      34.4407 
-0.000294507      8.42483      129.510 
-0.000107351      10.7976      147.634 
-2.26012e-05      10.9943      65.9541 
-0.000104194      8.04132      22.6742 
-6.59454e-05      13.7640      43.6459 
-8.46574e-05      9.32576     -97.7643 
-2.23377e-05      2.40007     -90.9495 
-4.34722e-05      10.2674     -148.137 
6.26078e-05      4.80039     0.474692 
4.04936e-05      11.3138     -40.0523 
-8.46152e-05      8.62513     -75.2214 
2.22201e-05      8.99871      46.8010 
-6.39121e-05      7.76183      122.581 
4.29363e-05      11.1318     -151.687 
0.000101024      12.9618     -130.744 
4.25049e-05      5.36502      132.432 
-6.05192e-05      4.43760     -64.9386 
5.97092e-05      9.51138      39.1116 
6.25949e-05      13.1430     -41.9174 
0.000234785      7.27660      14.6467 
2.19270e-05      5.72789     -45.1433 
4.23371e-05      5.81297      170.894 
6.17095e-05      11.6075     -151.492 
0.000317517      8.34761     -136.745 
0.000149844      7.67170      5.23603 
6.25189e-05      9.20341      91.6166 
0.000101738      13.3832      46.5744 
-0.000104834      7.59412      134.680 
4.23040e-05      12.2459      125.092 
-4.25463e-05      10.2196     -96.1794 
-0.000147331      10.6521      67.4798 
-4.20930e-05      13.9139      137.387 
0.000102961      8.68686      4.48867 
-4.23014e-05      10.3184     -148.313 
7.52668e-05      9.25744      47.4539 
0.000123664      12.2135     -126.005 
2.15965e-05      10.9763      62.3155 
-9.57076e-05      9.32487      56.1053 
-0.000228009      9.39019      142.007 
-8.17774e-05      6.97006      39.9951 
-7.99159e-05      4.87435     -63.4349 
5.98947e-05      9.94313      31.2596 
-0.000115431      10.1684      20.2537 
-0.000177752      13.2824     -140.437 
-4.06814e-05      10.4978      133.303 
-8.00153e-05      12.6874     -134.041 
4.24728e-05      12.9766     -130.688 
-0.000183067      10.2362      175.181 
-9.27341e-05      8.92694     -43.4537 
-0.000514702      10.0612     -73.3667 
6.10201e-05      9.60428      94.0591 
0.000152875     0.805984     -23.3667 
-6.12483e-05      6.62898     -123.307 
0.000116328      6.99491     -123.692 
0.000118447      5.83298      170.925 
8.25858e-05      10.9871      61.9910 
0.000134359      10.4098     -166.443 
0.000227061      11.8407     -52.5499 
-6.25219e-05      13.7500      43.5848 
2.12275e-05      1.81586     -26.8509 
2.11619e-05      5.96559     -8.48479 
7.88863e-05      11.6900     -148.430 
-0.000269733      10.7868      147.725 
-0.000377533      12.7042     -143.708 
-0.000343755      7.26024     -90.4738 
-5.91566e-05      6.27661      94.2027 
2.08947e-05      5.54267      11.0285 
-6.12318e-05      11.9126     -59.0858 
-6.04006e-05      10.2184      59.6727 
2.08223e-05      11.1339     -30.4346 
0.000133197      5.96263     -8.29224 
2.07973e-05      9.84447     -126.242 
-3.99084e-05      8.92458     -127.718 
2.07327e-05      9.24535     -38.8523 
4.09695e-05      11.6526      36.5555 
2.07462e-05      9.52417      39.2062 
-0.000145478      2.52775     -85.4539 
0.000167162      9.10255     -56.3767 
-2.05022e-05      9.90716      9.87826 
-2.05486e-05      10.7924      133.873 
7.83679e-05      12.5729      44.6784 
-2.04968e-05      12.7727      37.3008 
2.04658e-05      12.2001     -51.5906 
0.000144692      8.23838      25.7575 
-0.000163491      8.36240     -19.5601 
-2.04378e-05      10.9863      66.0470 
-2.03769e-05      9.04736      137.780 
-3.95290e-05      8.11619      145.643 
-0.000203017      10.4424      71.1159 
-2.03441e-05      10.2502     -148.077 
-5.53122e-05      7.00543     -106.420 
-2.03069e-05      11.9509      55.0876 
-2.02036e-05      12.2755      135.131 
5.77742e-05      10.3715      150.419 
3.98941e-05      10.3640     -171.120 
2.01534e-05      9.11942     -56.4472 
5.91631e-05      9.15017      85.3620 
7.48909e-05      5.60071     0.821416 
0.000110841      11.3787      125.702 
-2.00690e-05      8.24017      142.991 
-2.00552e-05      11.8445      142.687 
-0.000180141      6.51188     -47.4891 
-2.00938e-05      9.06182      137.863 
5.59427e-05      10.0121     -108.036 
-0.000160293      11.7585     -58.6349 
-0.000527535      13.7353      43.6431 
0.000231763      11.0418      121.443 
-0.000147847      9.07986      135.713 
9.41147e-05      11.1139     -151.637 
3.88563e-05      9.24907      37.8852 
-7.51811e-05      7.75134      122.459 
-3.59593e-05      10.3350     -148.370 
-0.000107908      5.73038     -124.187 
-0.000105528      9.99142      59.1742 
5.52056e-05      8.17785      66.5094 
-3.86137e-05      10.3048      103.012 
-1.97721e-05      6.05371      129.366 
5.69669e-05      9.44746      172.212 
9.56977e-05      12.2293     -125.951 
-0.000123876      9.92638      9.85894 
-7.56752e-05      7.60838      134.788 
0.000105729      8.00642      6.16585 
-5.72315e-05      8.61998     -75.3516 
1.96755e-05      11.6643      36.6325 
-0.000109891      10.2330     -148.017 
-0.000211268      11.9397      55.1643 
-0.000160703      8.79676      135.553 
7.60996e-05      10.9967      61.8978 
0.000111431      5.19130      133.911 
-1.96339e-05      5.93958      135.000 
-0.000128830      7.46421     -1.84352 
1.95534e-05      8.22851     -105.221 
-1.95514e-05      11.0121      67.5802 
0.000277758      9.36138      90.8589 
-3.58602e-05      12.1940     -139.122 
0.000159646      11.3711     -33.5233 
9.21689e-05      8.35369      153.559 
-3.83114e-05      10.2390     -96.1677 
-3.82644e-05      7.98326     -132.562 
0.000245131      10.3671     -171.009 
7.47700e-05      11.6764      36.7123 
-0.000215299      7.22980     -23.3001 
0.000124785      9.18274      40.1407 
3.71160e-05      9.15581      81.7112 
0.000138476      9.34393      164.861 
-1.91722e-05      11.8284      142.628 
-1.91483e-05      10.3078      97.4706 
-3.75888e-05      9.03426      137.872 
1.91388e-05      8.30294      4.28115 
-1.90865e-05      12.6729     -134.105 
9.03341e-05      11.8177      129.644 
-0.000125507      9.19229      8.12812 
-0.000105286      11.2252      47.5277 
-7.30234e-05      10.1971      45.5575 
7.33211e-05      9.31709     -167.606 
-0.000124807      11.0231      67.7177 
0.000104558      8.25319     -105.315 
3.68869e-05      10.3801     -126.540 
-1.90081e-05      13.0326      133.073 
-5.47489e-05      10.3523     -148.429 
-7.17617e-05      8.70981      130.531 
-1.89760e-05      13.6664     -136.542 
-1.89229e-05      8.70531     -72.8958 
0.000240111      12.6915     -39.3063 
-1.88170e-05      8.64472     -75.2557 
1.87807e-05      9.84887     -126.077 
6.94942e-05      10.5009      115.979 
-0.000175296      12.2493     -55.3763 
-3.69179e-05      11.1878     -60.3176 
5.50553e-05      11.5937     -56.9682 
7.26730e-05      11.8054     -34.5800 
0.000118128      10.1534     -50.1961 
3.69092e-05      9.48447      169.308 
5.52841e-05      9.16806      85.4934 
0.000122238      6.10529     -35.6670 
1.86555e-05      8.76588      63.7267 
-0.000323970      12.9288      137.945 
-0.000220645      10.3103      97.5781 
1.86547e-05      10.9939      62.5972 
-0.000187865      10.2592     -96.1555 
0.000184485      12.8870     -43.6812 
0.000254103      12.9898     -130.755 
-7.19096e-05      5.95392      134.862 
-6.92286e-05      9.99029     -146.594 
1.85712e-05      9.62239      93.9350 
-3.63967e-05      5.15302      171.745 
3.64744e-05      9.87617      115.422 
-1.85112e-05      12.0537      43.3856 
3.63368e-05      8.66666      4.49915 
-5.24039e-05      8.38828     -19.6442 
0.000120572      13.1704     -129.516 
3.48960e-05      9.56113      51.2861 
0.000119743      9.52717      94.3364 
-0.000104115      13.7034     -44.8225 
3.54108e-05      10.4749      115.930 
-5.33244e-05      9.06508      170.475 
-1.83032e-05      12.2761     -36.7221 
-0.000102701      10.3238      102.988 
5.26446e-05      12.4283      132.521 
-3.58336e-05      10.7224      23.4092 
0.000169862      12.2412     -126.028 
-1.81912e-05      10.1703      71.0651 
1.80879e-05      8.24806     -105.184 
-6.82387e-05      8.22400      142.906 
-3.42361e-05      11.1511      118.497 
1.80710e-05      6.59161     -136.227 
3.56561e-05      11.0112      62.6439 
-6.92197e-05      10.5715     -120.593 
1.80019e-05      8.09771     -70.2251 
7.05694e-05      13.5354      47.7547 
-8.60685e-05      10.4609      71.1504 
8.73670e-05      11.6171     -151.404 
-1.79984e-05      8.02333      22.7279 
1.79814e-05      9.47201     -85.2786 
0.000167309      9.80388      107.694 
0.000133836      9.16961      85.3719 
-0.000116935      12.6734     -133.976 
-0.000203570      13.6517     -136.483 
-1.78969e-05      8.73733      34.2728 
-0.000167571      9.78964     -7.74875 
0.000135352      11.0968     -151.589 
3.52562e-05      12.0532     -126.091 
-8.43328e-05      7.62277      134.681 
0.000134163      7.20041     -116.918 
-1.78306e-05      12.0716     -36.8507 
8.47510e-05      10.9976      61.6654 
-5.13528e-05      6.97309      39.7653 
1.77575e-05      9.45013      172.095 
3.48816e-05      10.0764     -126.689 
1.77654e-05      7.94253      95.9271 
5.07554e-05      11.8987     -149.382 
-0.000116812      6.04477      52.2566 
-0.000116712      6.64578      117.031 
0.000133564      11.6885      36.7919 
-3.43960e-05      9.38177     -72.7622 
-3.50191e-05      8.63959     -75.3856 
-5.23445e-05      11.2968      117.065 
-3.46177e-05      12.2326     -145.322 
-0.000282544      11.7378      123.744 
-8.42654e-05      12.7056     -43.2147 
3.46046e-05      9.85855      115.471 
3.35153e-05      9.25312      37.7128 
-3.47776e-05      6.78095      115.505 
-0.000280549      13.7752     -134.413 
-3.45457e-05      9.94635      9.83896 
-0.000182140      13.9945      43.0880 
6.77062e-05      8.69227      160.231 
9.92422e-05      9.88544     -141.160 
-3.46396e-05      10.0230     -13.1467 
0.000115569      3.60858     -58.6071 
8.34895e-05      9.04158      46.8799 
3.32150e-05      10.3791      150.572 
-1.73699e-05      12.6588     -134.039 
0.000133300      12.5831     -125.686 
9.88993e-05      9.49567      39.1887 
-9.91652e-05      10.2540      176.980 
-8.28218e-05      12.2608     -145.298 
-3.40227e-05      8.75345      34.2009 
4.99161e-05      9.18391      91.6200 
-1.72792e-05      11.8674      30.9308 
1.73114e-05      9.86082     -126.172 
9.94610e-05      9.75371     -83.9986 
8.26100e-05      9.17512      81.7287 
-6.69161e-05      6.29572     -123.995 
-0.000100208      12.9805      129.749 
5.02111e-05      5.20485      134.065 
8.31499e-05      11.8220     -34.5243 
-4.93500e-05      5.13372      171.714 
0.000131149      11.0292      62.6923 
1.71334e-05      10.3671      171.009 
-4.96447e-05      7.74049      122.333 
5.04679e-05      9.65105     -69.5008 
5.02635e-05      9.23710      37.7897 
6.61102e-05      10.3098     -83.3167 
4.99795e-05      9.45293      171.973 
-0.000196570      11.3149      117.019 
6.62383e-05      9.75871     -66.9541 
-3.35174e-05      10.1829      71.2099 
1.69596e-05      10.4863     -115.050 
4.96652e-05      7.63529      96.9204 
0.000130776      13.3187      39.8824 
-4.91234e-05      7.48371     -1.83872 
1.69100e-05      7.92158      1.01499 
-3.27851e-05      10.2113      45.4764 
1.69201e-05      8.51042     -32.7176 
-8.20016e-05      11.2018      134.134 
1.69062e-05      13.2243      135.920 
-1.68968e-05      9.04874      137.955 
-8.12248e-05      9.06573      135.805 
-1.68950e-05      11.0856     -118.090 
-8.14557e-05      11.9126      30.9142 
-6.52432e-05      10.5989     -120.628 
-6.56254e-05      10.0420     -13.1214 
-0.000114660      10.2508      97.6224 
-4.90783e-05      5.96777      134.730 
1.67695e-05      5.30059     0.867929 
-1.67437e-05      10.4854      133.069 
-1.67110e-05      10.7410      23.3663 
-3.28345e-05      4.95826     -71.4142 
1.67352e-05      7.46338     -17.9486 
-0.000129622      7.24772     -23.2391 
-0.000113465      9.38628      141.837 
3.31424e-05      8.33374     -136.846 
4.87298e-05      9.31292     -167.723 
4.85519e-05      8.52684     -32.6468 
3.29628e-05      13.9101     -42.9604 
-1.66565e-05      13.2775      138.602 
9.73880e-05      14.2988     -45.7357 
-8.09995e-05      11.3061      121.694 
4.86881e-05      10.4949     -115.151 
-3.26388e-05      9.00564      137.881 
4.82510e-05      6.47770     -70.3350 
4.87144e-05      6.98369     -123.553 
-4.88831e-05      2.47564     -96.4917 
-3.26035e-05      9.21234      8.11030 
-4.87300e-05      11.0951     -118.182 
3.26332e-05      10.3964     -126.474 
-3.27177e-05      10.4716      132.988 
-4.84997e-05      12.3181     -54.1158 
-1.64073e-05      10.0276     -13.2594 
-1.63436e-05      8.97525      33.0895 
-6.43233e-05      11.0345      67.8513 
-1.62991e-05      8.91225     -43.5433 
-3.22931e-05      6.78970      115.659 
3.21052e-05      10.2215     -90.8960 
4.82089e-05      13.1979     -129.528 
4.80387e-05      9.64423     -69.6094 
3.23042e-05      12.4575     -125.987 
-1.62437e-05      10.4538      103.609 
3.21241e-05      5.48722      2.92384 
1.62009e-05      6.49678     -70.3951 
-1.61277e-05      9.91772     -164.563 
-1.61437e-05      4.90154     -63.3290 
-1.61427e-05      10.3479      103.068 
-1.61343e-05      8.64982     -76.7655 
1.61401e-05      11.3945      125.644 
3.20921e-05      10.8645      157.259 
1.60643e-05      11.8374      44.6584 
1.60845e-05      9.27115      47.3616 
3.18967e-05      7.48194     -17.9025 
1.60382e-05      9.41571      83.7823 
-3.18253e-05      13.6515     -136.365 
-1.60334e-05      11.9814     -130.871 
-3.18265e-05      12.9676      129.680 
-3.18326e-05      12.0567      142.617 
-4.75596e-05      12.0493     -57.1254 
1.60036e-05      9.32421     -58.1505 
3.19309e-05      9.17017      40.0475 
-1.60373e-05      10.3193      105.167 
4.76082e-05      11.0790     -151.539 
-1.59670e-05      10.3035      26.7629 
-1.59829e-05      13.6897     -44.7646 
-3.18149e-05      3.73939     -8.30734 
-1.59581e-05      7.25868     -113.034 
-1.59415e-05      10.1637      71.1731 
-3.16974e-05      8.78231      135.460 
1.59739e-05      6.12176     -35.5565 
3.16718e-05      7.61592      96.9381 
-4.74957e-05      9.89819     -164.532 
3.16439e-05      12.5666     -125.740 
-3.16522e-05      13.6376     -136.427 
1.58246e-05      12.3174     -127.744 
-1.58424e-05      8.72250      130.629 
1.58592e-05      5.36402      17.3526 
-1.58798e-05      10.2614     -96.2680 
3.15868e-05      13.8958     -43.0153 
1.58234e-05      9.45578      171.852 
1.57884e-05      12.4739     -125.932 
1.57990e-05      8.71134      160.276 
-1.58147e-05      2.47801     -96.9572 
-1.57831e-05      13.6758     -44.8222 
-1.57741e-05      9.81632      125.212 
1.57990e-05      7.99198      16.5735 
-1.57392e-05      11.9282      55.2442 
1.57220e-05      9.55311     -20.9790 
-0.000146981      13.0460      133.135 
-9.35893e-05      14.0006     -45.2302 
-8.86252e-05      13.5799     -47.9250 
-8.86468e-05      10.1303     -175.586 
-6.95326e-05      13.8931     -46.6348 
-6.92629e-05      11.2389      47.4515 
-8.61496e-05      10.9604     -128.482 
5.21453e-05      11.7487      126.209 
-6.76312e-05      13.1086      50.2604 
5.08386e-05      10.9432      114.973 
-5.07331e-05      8.79782     -113.303 
6.68316e-05      14.1181      43.6217 
5.05082e-05      8.67321      160.185 
-5.01142e-05      10.2372      102.867 
5.01904e-05      11.7072     -148.482 
-3.37731e-05      10.8762      137.981 
3.33173e-05      11.9101      56.9247 
3.34912e-05      8.95887     -168.540 
3.31773e-05      11.2794      119.882 
-4.94670e-05      14.0291      45.4616 
-1.67487e-05      8.59250      81.5684 
-1.66937e-05      12.0168      34.6933 
-3.28415e-05      8.89349      34.8352 
1.65092e-05      10.4067      150.529 
-1.65003e-05      9.70113     -176.217 
1.64100e-05      11.6384      124.429 
1.63945e-05      9.34079     -58.2137 
1.63458e-05      8.03236      63.0519 
1.63636e-05      5.30032     0.648940 
1.62692e-05      11.6349     -151.451 
1.62580e-05      6.83245     -9.43749 
-1.61237e-05      14.0293     -45.2297 
1.61088e-05      11.9000     -55.2687 
! Tentative model.
! Flux (Jy) Radius (mas)  Theta (deg)  Major FWHM (mas)  Axial ratio   Phi (deg) T \
! Freq (Hz)     SpecIndex
-1.72873e-05      13.5800     -47.9250 
