! Center RA: 12 21 31.69052,  Dec: +28 13 58.50019 (2000.0)
! Established model.
! Flux (Jy) Radius (mas)  Theta (deg)  Major FWHM (mas)  Axial ratio   Phi (deg) T \
! Freq (Hz)     SpecIndex
  0.101070      0.00000      0.00000 
 0.0121598    0.0247628      180.000 
 0.0130949    0.0247628      90.0000 
0.00286934    0.0502759      90.0000 
0.00438809    0.0350198     -135.000 
0.00492885    0.0750387      90.0000 
0.00203210    0.0247628     -90.0000 
0.00340765    0.0560434     -116.222 
 0.0136140    0.0998015      90.0000 
0.00654158    0.0502759     -90.0000 
0.000430231     0.102828      103.935 
0.00163155     0.275756      95.1521 
0.00648851     0.279205      100.374 
0.00132190    0.0350198     -45.0000 
0.00533463     0.125315      90.0000 
0.00754651    0.0560434     -63.7780 
0.00335584     0.427186      110.568 
0.000883957     0.745662      103.561 
0.000149069     0.436502      113.612 
0.000404438     0.450455      109.461 
0.000139574     0.728215      105.970 
6.79032e-05     0.680020      107.135 
0.000382279     0.459299      112.375 
0.000373949     0.656397      107.772 
0.000561096     0.752053      105.451 
7.11352e-05    0.0247628      0.00000 
0.000323528     0.632861      108.456 
0.00116847     0.608714      109.217 
0.000194274     0.419129      107.397 
0.000627876     0.260903      106.715 
0.000304092     0.735413      107.825 
0.00111765     0.442821      106.439 
0.00183864     0.759025      107.253 
0.000524509     0.269072      111.772 
0.00201171      1.08512      104.661 
0.000176048    0.0790190     -108.263 
0.000130862      3.00850      118.272 
0.000458431      2.99685      117.855 
0.000130455    0.0711009     -45.0000 
0.000160892     0.583396      133.280 
0.000217948     0.127738      78.8221 
0.000686929     0.124864     -126.939 
0.000271239     0.425440      86.6632 
3.22230e-05     0.254886      101.376 
0.000120698      2.82057      114.069 
0.000231535      3.14458      119.005 
0.00109896     0.600643      135.000 
8.97063e-05    0.0903243     -33.8221 
0.000495540      3.30002      114.619 
2.96571e-05     0.251103      95.6595 
5.80332e-05      2.79729      114.282 
2.88465e-05     0.111750     -26.7371 
0.000522212      2.81026      113.594 
0.000110232     0.158275     -18.5208 
0.00163080      7.25121      109.748 
5.43183e-05     0.301880      114.526 
0.000426694     0.427684      83.2491 
7.90460e-05      5.67923      110.350 
0.000175146      3.16626      118.788 
0.00132162      5.68789      110.584 
0.000333349     0.181925     -16.0428 
0.000672239      3.48874      116.383 
4.85159e-05     0.279541      116.634 
0.000198154      2.78690      113.804 
4.72653e-05     0.600799      106.919 
0.000160431      2.87923      110.329 
0.000102934     0.225116      90.0000 
0.00112497      12.6604      127.457 
0.000937144      1.22751      123.379 
0.000769002      11.0694      117.143 
0.000723949      3.17863      119.191 
0.000488613      6.44019      104.846 
9.89297e-05     0.152107      80.6306 
0.000489111     0.206565     -14.0867 
9.64595e-05      2.87046      109.851 
9.62163e-05      11.0808      117.257 
0.000133856     0.790186      108.435 
0.000326002      6.46940      104.091 
0.000465762      6.38754      108.720 
0.000982761      4.55184      115.015 
0.000165547     0.201878     -7.04577 
3.67314e-05     0.246247     -156.091 
0.000239103      1.10982      104.328 
0.000119025     0.525271      180.000 
0.000195716      6.81479      101.638 
7.07914e-05      5.46325      107.853 
0.000265609      12.3517      127.682 
0.000311268      6.16834      109.907 
0.000318641     0.782708      106.715 
0.000409152      8.52194      113.332 
3.45141e-05      11.2271      117.593 
0.000603800      8.01890      118.085 
0.000133271     0.160200     -128.534 
0.000239650      5.45571      107.605 
3.20172e-05      2.89377      109.685 
0.000139012      11.2386      117.705 
0.000224088     0.176585      81.9388 
6.19920e-05     0.269072     -158.228 
0.000246423      3.80772      113.200 
7.65269e-05      5.42731      114.201 
0.000218116      5.15821      98.6429 
3.05808e-05      5.13373      98.6844 
5.72781e-05     0.406935      79.3739 
2.92705e-05     0.201878      82.9542 
0.000160926      7.11014      110.156 
0.000267804      12.3361      127.589 
0.000127802      5.10925      98.7263 
0.000202863      9.42265      106.175 
0.000349968      5.43751      114.439 
0.000363362      3.19078      119.579 
5.61814e-05      8.28570      108.108 
4.25308e-05      8.51187      113.175 
2.62620e-05     0.585387      110.014 
4.16385e-05     0.257645     -150.897 
0.000210146      8.54468      113.267 
0.000245310      11.2605      117.646 
0.000294043     0.602224      131.616 
0.000143494      8.04288      113.058 
3.89352e-05      6.46342      103.878 
0.000143386      8.14545      105.484 
0.000416694      4.77473      117.773 
0.000126758     0.550034      180.000 
0.000160248     0.279541     -153.366 
0.000136110      8.30901      108.050 
0.000202757      5.08477      98.7687 
0.000239888      6.39553      108.930 
6.22037e-05      1.19647      79.1552 
0.000203600      4.08003      109.321 
8.92983e-05      2.80044      113.130 
0.000390471      3.52195      116.565 
0.000306570      8.13887      105.316 
0.000100541      1.25116      92.3030 
0.000309713      2.68424      115.376 
9.73489e-05     0.146064     -120.913 
6.94681e-05      12.3145      128.406 
3.44932e-05      6.48214      103.605 
0.000184255      5.18343      98.6005 
0.000149880      7.52606      108.196 
0.000106233      1.17216      78.9274 
0.000105610     0.618947      133.330 
8.46626e-05      7.10164      109.969 
0.000162215      5.05477      106.374 
9.43621e-05      8.53464      113.109 
9.39424e-05     0.301880      24.5265 
1.11333e-05     0.594318      112.258 
5.26715e-05      7.77224      115.328 
2.13308e-05     0.467347      105.554 
0.000114305      12.2987      128.313 
3.16784e-05      6.48819      103.824 
2.12758e-05     0.775949      104.964 
8.14632e-05      9.11104      106.744 
7.77424e-05      6.43389      104.633 
5.03526e-05      8.03125      118.239 
0.000207809      12.3210      127.497 
4.00222e-05      1.41820      99.1334 
1.97537e-05      6.70492      109.380 
1.00719e-05      5.82059      103.920 
2.96851e-05      1.24131      124.334 
1.00073e-05      9.44716      106.132 
7.54563e-05      5.67377      110.913 
9.93652e-06     0.562184      110.878 
0.000128528      5.82660      104.156 
7.82586e-05      7.02015      108.691 
0.000637910      12.6697      120.865 
0.000102396      12.6570      120.769 
0.000804878      11.7394      116.563 
0.000399316      7.67532      90.5602 
0.000786560      12.5118      114.053 
0.000386064      9.92104      111.586 
8.09743e-05      11.7055      116.511 
0.000625611      10.6817      107.713 
0.000109073      9.93018      111.719 
0.000108359      9.73904      115.708 
0.000166841      7.45001      89.6133 
0.000218831      12.9442      120.527 
7.61901e-05      9.68435      115.372 
0.000528249      9.50558      121.559 
0.000621456      7.26858      125.058 
0.000235494      7.42546      89.4210 
0.000233492      4.36357      101.567 
0.000260417      8.93182      124.623 
0.000248494      10.4311      111.954 
0.000459832      12.6351      120.828 
2.48420e-05      12.5347      114.010 
9.29832e-05      7.70037      90.7426 
0.000222229      12.5673      115.952 
0.000250132      9.67376      115.239 
0.000113119      10.5891      117.413 
0.000199091      9.88439      122.081 
0.000137937      9.98180      120.224 
0.000250122      7.27504      90.1950 
0.000160208      7.20070      115.943 
0.000129119      9.11785      111.220 
2.12548e-05      4.54142      114.732 
0.000283965      4.36861      101.885 
0.000116100      10.5774      117.290 
0.000242793      4.57497      114.880 
0.000100529      3.55008      90.0000 
0.000136156      10.4082      112.005 
0.000187462      6.40456      109.144 
0.000170190      6.80984      101.434 
0.000184315      7.67561      90.7450 
9.78758e-05     0.807177      106.194 
0.000129387      9.75014      115.843 
0.000205090     0.102828     -103.935 
0.000221250      9.09477      111.276 
2.01200e-05      5.34469      116.087 
0.000127440      5.36694      115.970 
5.66736e-05      1.50751      95.7134 
0.000126532      3.37562      90.8534 
0.000160804      3.64712      96.2959 
0.000111345      2.42849      87.0421 
0.000125116      8.91777      124.492 
8.94090e-05      2.20624      107.825 
0.000106230      3.64448      95.9090 
3.66820e-05      7.02837      108.888 
7.11572e-05     0.800624      104.492 
1.83111e-05      12.1117      128.715 
6.96167e-05      2.51040      84.8552 
6.92764e-05      1.50525      94.7755 
3.47510e-05      3.18799      118.574 
3.49739e-05      6.45148      104.358 
5.18201e-05      12.0962      128.623 
3.47889e-05      6.96535      117.117 
5.14665e-05     0.958376      74.8865 
1.76302e-05     0.135024     -111.861 
5.13033e-05      5.68265      111.147 
1.75265e-05      5.06180      106.643 
5.13040e-05     0.301880     -155.474 
1.74281e-05     0.571478      113.199 
5.09525e-05      10.6649      107.882 
3.38919e-05      2.00307      119.119 
3.38019e-05      12.9655      120.471 
3.39302e-05      3.36097      85.3128 
3.38903e-05      5.17968      98.3214 
-3.35409e-05      10.4767      107.356 
1.68566e-05      12.2555      113.950 
1.68545e-05      2.40181      87.6185 
3.34424e-05     0.854373      110.568 
1.67331e-05      2.23745      108.234 
1.67133e-05      3.17622      118.182 
1.66869e-05      9.75273      113.411 
1.66396e-05      7.22297      115.857 
1.66474e-05      9.11843      106.898 
-0.000824881      10.1770     -165.665 
-0.00112551      10.1338      58.0670 
-0.000829970      10.4748      34.8115 
0.000326525      9.97016      70.1849 
-0.000201177      10.2791      146.989 
0.000698585      12.8972      141.548 
-0.000429027      3.58743      64.5820 
0.000874044      10.2766     -149.343 
-0.000721894      10.3667     -10.8984 
-0.000597881      10.2961      147.050 
0.000297405      6.30181     -178.724 
-0.000457206      5.47823     -118.808 
-0.000483057      8.95378     -64.1801 
0.000290658      12.7294      40.2203 
-0.000489671      12.4636      52.8914 
-0.000487309      9.16355     -75.2070 
0.000115260      9.98922      70.2243 
-0.000426975      9.16378     -96.7671 
-0.000165666      10.1573     -165.636 
-0.000263111      6.81570      80.3728 
0.000312159      11.9026     -132.754 
0.000464803      10.2398      161.318 
0.000261953      8.38819     -6.15737 
0.000214209      11.2863      45.7192 
-5.69735e-05      13.4301     -48.3816 
0.000211027      4.67190     -104.634 
0.000203954      6.28156     -178.720 
0.000310810      8.63006     -38.2241 
-0.000215799      8.33340     -151.159 
-0.000107841      10.5624     -72.2511 
0.000356986      6.90331     -1.82512 
0.000257791      8.27196      3.04721 
-0.000358954      6.22458      21.2909 
-0.000162308      11.3987     -134.573 
-0.000505686      10.3034     -70.9660 
-0.000206936      13.4150     -48.3241 
0.000301643      10.0335      70.1923 
0.000299363      7.71064      19.2337 
-0.000205461      4.60199     -110.882 
0.000103905      12.8668      137.456 
5.35394e-05      10.6490     -143.863 
-0.000103024      10.4080     -126.560 
-0.000103504      3.59618      64.2904 
-5.32011e-05      4.93842      128.590 
0.000150747      9.02222     -14.3749 
-0.000249005      10.4470      34.7870 
0.000101213      12.7145      40.2771 
-0.000247191      8.74469     -144.965 
-0.000293987      9.49154      124.092 
-0.000279954      7.75031     -97.7119 
0.000342319      11.3259      58.7238 
-0.000147578      11.5208     -62.7240 
9.84833e-05      10.8489     -58.8024 
-0.000242673      10.8854      63.7193 
-0.000289722      11.3218      60.3545 
0.000145836      10.1109      113.677 
-5.08809e-05      4.18562     -158.702 
-0.000194360      13.0990     -41.0374 
-0.000146481      11.4130     -134.646 
9.79548e-05      10.6327     -143.798 
-0.000147240      9.33899     -27.5533 
5.03865e-05      12.3091      33.8703 
0.000146896      10.0965      150.184 
-0.000193514      11.8643     -125.325 
-0.000145658      8.39900      123.048 
-5.00003e-05      5.90949     -138.707 
0.000286105      11.0507      34.3807 
9.66343e-05      9.49762     -104.388 
-0.000191664      9.56113      51.2861 
-4.94787e-05      4.96643      128.621 
-0.000143905      8.40671     -2.31739 
-9.60445e-05      4.16745     -158.605 
-0.000143600      9.44285      108.395 
4.86861e-05      9.10732     -149.664 
0.000141736      11.0668      34.3236 
-9.49196e-05      11.3250     -36.0187 
4.83191e-05      9.25110     -138.420 
4.82332e-05      7.43417     -102.427 
-4.80710e-05      7.37276     -96.8567 
-0.000128878      9.44181      29.7149 
-9.37717e-05      8.57918      120.391 
4.70920e-05      11.3738      138.209 
-4.70839e-05      2.80034     -1.22835 
4.69826e-05      10.9332     -123.662 
-4.69504e-05      8.32401     -151.277 
9.23223e-05      5.08780      106.441 
4.66126e-05      10.0789      150.127 
4.65839e-05      7.57491      54.6741 
-4.63294e-05      5.46049     -118.911 
-4.62372e-05      7.62855     -4.96583 
-4.62074e-05      13.4285     -48.2596 
-4.61546e-05      9.33111     -27.7191 
4.60684e-05      10.0594      70.1228 
4.59112e-05      3.59417     -170.070 
-4.57737e-05      4.60898     -111.109 
0.000414839      4.84203      1.66067 
-0.000510591      4.01151      13.5553 
-0.000260550      13.3092      134.086 
0.000393067      5.01580      4.57358 
0.000529535      9.65257     -111.517 
-0.000454856      9.79349     -158.308 
0.000375809      4.41560     -170.877 
-0.000498915      11.4037      129.020 
-0.000475066      3.42094      12.4906 
0.000143514      7.79154     -158.307 
-0.000360737      8.76815     -142.976 
0.000139734      6.24752     -61.3017 
-0.000329041      1.55243     -14.9296 
-0.000379312      6.21737     -54.1633 
-4.78869e-05      4.74011     -26.5651 
-9.25806e-05      13.3102      133.965 
-0.000304014      3.97854     -9.83896 
4.55813e-05      6.10953     -62.9314 
0.000164059      8.40128     -157.464 
-0.000122867      4.75824     -26.4559 
4.41962e-05      5.03600      4.55520 
-8.57749e-05      11.1426     -118.634 
-0.000203131      13.2962      133.902 
0.000326485      12.9040      136.758 
0.000190951      7.77341     -158.254 
-0.000120627      9.03041     -132.666 
8.32027e-05      6.12691     -63.0144 
-0.000689465      11.8965      46.2957 
-0.000519369      11.0341     -119.541 
0.000270058      8.23894     -7.95225 
-0.000119286      8.97129     -79.4645 
-0.000286643      10.9932     -148.769 
-0.000426222      11.6766      55.8197 
4.19448e-05      6.26530     -61.3906 
0.000178659      12.8606      138.153 
-0.000185481      7.96079      131.741 
-0.000214471      11.1511     -118.497 
-7.70973e-05      3.39697      12.2433 
7.71769e-05      2.68543      34.9868 
0.000113615      12.3526     -37.4992 
-7.67802e-05      10.0806     -8.09633 
0.000194961      6.25728     -61.1389 
-3.91481e-05      9.38003      126.503 
0.000201821      9.01217     -61.5038 
0.000110001      4.41244     -171.137 
7.47276e-05      2.55135      33.8116 
3.87879e-05      10.2253      62.3819 
-0.000266264      11.0202      43.6012 
0.000109749      10.8832     -123.837 
-7.32804e-05      8.39676      14.2002 
-0.000109591      7.36036     -15.2802 
0.000253605      11.1935     -150.687 
-0.000210410      11.4165      129.099 
-0.000192476      7.88143     -88.8380 
0.000307788      7.50965      44.8907 
-0.000137457      9.39210      126.603 
0.000102716      8.52398      63.0740 
9.72811e-05      10.2073      62.3292 
-9.30715e-05      3.40116      12.5645 
-0.000137808      13.2821      133.839 
0.000218201      11.7684      149.121 
0.000127282      6.86986     -25.8933 
3.57714e-05      8.89302     -38.7006 
0.000129171      6.11774     -63.1835 
0.000190242      7.61200      41.0589 
-0.000162450      7.83495      135.210 
-3.52986e-05      4.03120      13.4879 
0.000247140      6.39361      3.76845 
0.000405198      4.66769     -105.401 
-3.51709e-05      8.96760     -79.5918 
-3.50718e-05      5.77142      43.8779 
-9.46707e-05      10.0972     -7.97113 
0.000250744      10.6791      49.3284 
-0.000158573      9.81232     -158.352 
-0.000259511      5.29387     -29.6683 
0.000131702      12.3649     -37.5737 
0.000210192      11.5469     -136.967 
0.000205493      3.92467      54.1249 
0.000122935      2.65765      34.8926 
-0.000124307      5.76355      19.8811 
-0.000186045      9.36225      49.5053 
-0.000102207      10.6199     -20.6195 
0.000127299      8.90826     -38.6221 
-6.61026e-05      10.0779     -7.98651 
0.000123204      7.97932      140.085 
-0.000124278      11.4308     -57.8686 
-0.000123421      11.4771      61.0218 
-6.38894e-05      6.20553     -54.3149 
3.36934e-05      8.99622      162.936 
0.000206492      2.73774      27.8785 
-0.000338290      7.35524     -15.1336 
-3.33039e-05      11.0343      43.5313 
3.32831e-05      10.4217      62.4534 
-3.32335e-05      6.01726      22.4715 
9.45582e-05      5.91060      174.171 
-0.000200526      11.1482      142.802 
-0.000562768      10.8292      19.3050 
-0.000121177      8.68321      44.4398 
-0.000262798      9.54552     -100.014 
0.000247626      9.89554      22.8318 
3.27222e-05      6.27503     -61.2282 
-0.000825590      10.7571      22.7515 
-3.23183e-05      6.38830     -52.3777 
-0.000323422      6.54257      147.863 
0.000180058      8.57795     -176.258 
-0.000288928      5.77151      43.5987 
3.19178e-05      11.3532     -125.175 
-0.000149224      9.53746      71.0333 
-9.19949e-05      13.2686      133.779 
6.04017e-05      4.99635      4.59142 
-0.000237553      9.96038      100.294 
8.88968e-05      10.2609     -57.9813 
3.12291e-05      10.0243      53.5170 
-3.11427e-05      1.54963     -11.1685 
-0.000142313      11.4450      129.114 
-7.93831e-05      5.54139      22.4915 
5.49327e-05      10.9943      148.162 
-8.29550e-05      8.54415     -16.3117 
0.000115095      11.4265     -33.9405 
-8.62848e-05      9.97824      30.4701 
0.000212123      7.42498      27.5983 
-0.000135343      11.9605     -147.082 
-8.63816e-05      7.94732      131.632 
-9.09230e-05      6.40068     -52.2340 
0.000537590      9.65975     -111.625 
-0.000629303      10.8401      55.3716 
-3.04670e-05      5.85940      150.112 
0.000105114      11.6286     -32.5682 
3.02813e-05      4.86288      1.88353 
-8.43839e-05      6.11491     -150.837 
3.01644e-05      8.53318      62.9527 
-5.81744e-05      3.67704     -22.3833 
0.000234016      12.3489     -37.6310 
0.000156111      11.4997     -126.870 
0.000212867      10.9878      148.016 
-3.00180e-05      6.01399     -6.10966 
5.77637e-05      10.9001     -123.778 
8.30905e-05      9.23609     -156.657 
-0.000162356      9.40374      126.698 
-0.000278044      11.9715     -147.000 
0.000113118      8.09611      166.138 
0.000164860      9.57438     -11.5697 
0.000125655      7.59920      40.9480 
0.000288483      10.2062      13.5990 
-0.000313201      9.34959      49.5962 
0.000383961      8.36348     -98.1134 
7.98889e-05      7.66662     -55.5198 
0.000156460      6.57127     -65.9345 
-5.49739e-05      1.57201     -14.7394 
0.000128450      10.0302     -141.964 
5.52317e-05      6.82762      41.6764 
0.000138388      7.44798      16.5361 
-8.07248e-05      10.3436      36.8250 
-5.50128e-05      11.1333     -118.546 
-2.89027e-05      8.78037     -142.871 
0.000211453      10.1656     -109.540 
0.000135308      10.1398     -170.462 
0.000301858      5.77213     -126.830 
-0.000624107      11.5647      40.2997 
0.000716892      12.9049      136.885 
-0.000135133      12.4603      53.2212 
-0.000184500      10.8763      63.5764 
-0.000146691      5.87999      151.342 
0.000116542      10.7058     -146.044 
2.84628e-05      5.54207     -16.9972 
-0.000203750      13.2546      133.715 
-0.000293346      8.40417      174.127 
-5.44153e-05      7.75211     -96.6648 
2.81643e-05      11.0340      34.4401 
-0.000129770      8.92531      70.6297 
-0.000103397      10.0944     -7.85724 
-6.88379e-05      6.03529      22.4007 
0.000209382      11.6116     -32.6220 
-0.000461270      9.74668     -87.8822 
0.000238772      10.6924      49.2461 
-2.76371e-05      9.81981     -158.242 
-2.75771e-05      8.15984     -118.071 
-0.000101480      6.16007     -96.5259 
-0.000509728      10.6948     -108.537 
5.05073e-05      8.92045     -38.7200 
0.000122580      8.11505      166.171 
2.72118e-05      7.61451      40.8481 
-0.000147091      12.4618     -132.008 
5.27418e-05      4.33867      7.68305 
-0.000102360      7.57201     -126.838 
0.000516626      8.59817     -176.267 
-7.86657e-05      12.3083      43.4190 
-5.01897e-05      4.13282     -56.8466 
-0.000301915      12.4130     -50.9523 
5.09112e-05      13.0166     -131.822 
0.000144847      5.52867     -17.2594 
0.000160054      10.3375      50.1801 
-2.67838e-05      8.40627      173.990 
0.000202230      13.6381      48.0308 
0.000641601      10.0462     -142.035 
-0.000275484      9.80099     -158.198 
0.000306246      13.0685      41.1540 
-0.000233129      12.3628      51.8328 
0.000140831      9.02186     -61.3907 
5.23831e-05      5.73985     -89.6030 
-0.000149031      9.46817      71.9097 
0.000462304      7.46740      16.4919 
-0.000332701      13.4285      138.260 
-9.56586e-05      13.0247      44.9370 
0.000100506      8.76674      76.9451 
-5.02687e-05      9.56148     -63.2761 
2.62643e-05      6.93328     -156.542 
-7.27914e-05      5.86931      118.049 
-0.000121632      5.93007     -145.721 
-2.59563e-05      5.86666      150.372 
4.56745e-05      5.53120     -69.4703 
-0.000226691      8.98457     -22.5105 
5.03316e-05      8.34956     -137.138 
-0.000229057      7.66003      130.554 
0.000467824      13.2040     -129.283 
8.78700e-05      9.56171      153.005 
5.06447e-05      3.71394     -175.062 
0.000182199      13.7915     -133.765 
-2.55714e-05      5.92191     -170.474 
7.30528e-05      11.7853     -32.3159 
0.000239645      10.2541     -57.8288 
2.52788e-05      6.88742     -25.8224 
2.52831e-05      11.0633      49.3983 
-9.11297e-05      7.22821     -115.573 
-2.50635e-05      9.52628     -7.72289 
9.40086e-05      11.4433     -33.8839 
7.18306e-05      8.24118     -37.7057 
-2.50298e-05      7.91921      131.624 
0.000139019      10.0652     -37.7345 
0.000357571      13.6320     -132.443 
0.000190215      11.5321     -136.898 
-0.000148347      8.92460     -111.563 
2.48444e-05      12.7161      47.9324 
0.000141631      4.99802      4.82293 
0.000138828      9.43697     -119.172 
-0.000124520      11.4322      129.035 
-4.79514e-05      11.2430     -153.026 
0.000156982      9.55121     -11.4741 
-4.37907e-05      9.76177     -23.6763 
7.09459e-05      7.23814      69.9626 
2.46230e-05      9.27207      17.9643 
-0.000151359      7.06830     -118.012 
-0.000217450      12.4482      53.2959 
2.44687e-05      6.81306      41.7855 
-2.44295e-05      7.75449     -96.8135 
-9.16037e-05      11.6398      44.2347 
6.85443e-05      11.2889      31.7482 
-8.77068e-05      6.54961     -74.7760 
8.59854e-05      6.63743      47.0753 
-0.000176190      5.99421     -138.654 
-0.000115542      9.52357     -7.60210 
9.04090e-05      11.4040      38.3766 
-0.000159254      7.57597     -126.632 
-0.000243044      10.1241      6.46447 
2.40621e-05      12.4479      144.547 
-2.39614e-05      8.66957      44.3477 
-0.000209756      9.52557     -100.035 
0.000423462      13.6245      48.0942 
0.000113497      3.71574     -174.751 
4.61835e-05      8.23626     -7.81783 
0.000201568      12.2808     -146.492 
-2.37738e-05      5.64905     -24.0251 
0.000249098      10.1172     -170.557 
-6.84093e-05      11.5969      135.000 
4.36437e-05      9.21750     -156.607 
6.83979e-05      11.4484      138.542 
-2.35584e-05      9.73021     -45.0000 
-0.000220054      9.31709     -102.394 
0.000221932      5.76279     -178.209 
6.76284e-05      12.2538      33.4828 
-8.45911e-05      7.76184     -91.3295 
-2.33290e-05      5.78261      19.8129 
-0.000138837      7.90577      131.514 
-8.91315e-05      8.90949     -64.1817 
-0.000123181      10.4943      73.8458 
-2.32876e-05      7.74248     -97.2717 
4.47035e-05      8.33630     -137.236 
-0.000246108      10.8581      63.5288 
-8.51759e-05      9.41586      126.797 
-6.51469e-05      9.71123      13.5767 
-2.30157e-05      11.4865      60.9367 
-2.29524e-05      9.37766      49.5857 
7.94332e-05      7.80557      103.181 
2.29477e-05      2.64611      34.5328 
-0.000101682      6.08837     -150.908 
0.000404763      12.2645      33.5588 
2.27951e-05      10.3330      64.6762 
-0.000171481      11.0241     -119.449 
-4.32345e-05      5.67582     -24.1286 
-0.000169303      9.77254      36.2619 
-0.000136943      7.66557      134.365 
0.000225918      13.4531      43.6146 
-0.000208885      10.7459      17.9946 
4.20303e-05      7.67768     -55.3998 
-0.000166932      9.46190      72.0263 
-2.25365e-05      8.66930      44.5301 
-4.20029e-05      7.67043     -149.961 
0.000196943      7.44228      27.5288 
-0.000193906      6.55974      147.957 
-2.24455e-05      10.3682     -105.322 
6.47319e-05      10.7004     -145.893 
-2.23560e-05      10.6463     -72.6200 
-0.000307868      9.96472     -115.946 
-6.47378e-05      7.74507     -97.4204 
4.26549e-05      7.49531      45.0000 
4.18086e-05      3.53842     -73.9211 
-0.000151322      8.94443      70.6728 
-0.000108216      13.2406      133.652 
0.000204495      7.81635      102.864 
-2.19911e-05      11.0106     -148.823 
4.26936e-05      6.03230     -69.2204 
0.000110545      2.74691      28.2382 
4.30288e-05      9.81084      177.313 
4.23115e-05      8.36059      52.5819 
2.18105e-05      9.92724      111.758 
6.32786e-05      11.8024     -32.2633 
-2.17656e-05      8.56858     -16.4051 
6.27579e-05      7.24510      69.8121 
-0.000140890      13.2125      133.652 
-2.16857e-05      11.3446      60.7680 
-4.17911e-05      7.49934      175.869 
-0.000291044      10.3735     -105.430 
9.66857e-05      12.3365     -37.5565 
-0.000113972      12.8732     -37.7423 
-4.10054e-05      9.74402     -44.9189 
0.000119450      3.88333      48.7526 
-4.17222e-05      6.16241     -96.7131 
0.000205251      5.78776     -126.714 
2.14429e-05      13.1362      138.643 
-7.72704e-05      7.92397     -125.133 
-0.000112866      9.50424     -7.61766 
-4.08869e-05      3.96211     -10.1777 
-0.000180886      11.3276      60.7198 
-2.13691e-05      9.90714      56.6927 
8.28061e-05      9.44519     -119.009 
8.01141e-05      2.61856      34.4096 
-4.11795e-05      10.2303      8.43143 
-0.000132221      10.6800      73.1272 
-0.000172638      11.5826      135.071 
-0.000160821      13.3797      45.7271 
-0.000128765      11.1583     -135.362 
-6.11133e-05      5.93546     -145.993 
-5.93546e-05      9.45284     -9.62383 
-0.000110382      9.91337      72.9888 
2.10708e-05      9.91592      125.231 
2.10384e-05      9.70627     -112.918 
9.88249e-05      11.4602     -33.8274 
-5.69254e-05      9.36503      49.6766 
-0.000162732      10.1890     -161.813 
0.000148543      9.94606      111.715 
-2.08573e-05      12.0317     -144.540 
-7.34864e-05      8.66047     -21.8263 
-0.000144656      12.4487     -131.941 
-5.64778e-05      9.54338     -63.2214 
0.000109165      12.5595     -54.4639 
-0.000130117      12.9914      38.1223 
5.94985e-05      8.87064      41.3441 
0.000228649      9.53136     -11.4984 
0.000129151      10.6809     -142.378 
2.05663e-05      8.16878     -7.45796 
5.95680e-05      13.1514      138.701 
-2.05352e-05      5.88811      151.609 
0.000158882      5.54802     -17.1973 
3.94804e-05      11.4332      138.475 
0.000194906      10.0776     -37.8256 
0.000332241      9.79775     -101.540 
-0.000164401      8.90068     -64.2991 
-0.000144023      11.6259      44.3018 
-5.66353e-05      11.0377     -148.786 
8.79704e-05      9.79061      177.307 
-2.01962e-05      10.1145     -7.84155 
-5.90045e-05      7.74762     -97.5635 
-3.99696e-05      10.1827     -161.922 
7.69886e-05      8.11044      137.298 
5.23077e-05      8.87614      37.3117 
7.48806e-05      11.1450      38.5158 
-0.000159619      8.99235     -22.6298 
-5.84413e-05      11.8725     -143.631 
0.000133091      13.0837      41.0957 
-9.60154e-05      13.7633      46.2349 
-5.46445e-05      5.89777      151.436 
3.95170e-05      11.8128     -32.3433 
-1.98030e-05      10.1916      107.119 
0.000108166      9.04869     -61.3372 
5.40209e-05      11.2782      31.6607 
-1.97740e-05      12.2409      48.4443 
1.97080e-05      9.46226     -118.951 
-0.000125980      12.0943     -46.1388 
-1.96858e-05      11.6740     -60.0961 
-3.84599e-05      6.18841      52.3547 
-7.37246e-05      6.61660      142.367 
0.000126445      10.7056      49.1639 
-9.03910e-05      4.71302     -68.3324 
3.68988e-05      9.71418     -113.028 
1.93602e-05      11.5118     -126.951 
-7.24360e-05      8.71731      147.844 
1.93288e-05      4.97783      4.84254 
-5.62452e-05      13.1699      133.585 
-5.60627e-05      12.7961      36.9935 
0.000142218      10.4261     -110.902 
-3.82094e-05      10.1722      107.153 
3.82003e-05      9.47999     -118.892 
-0.000121491      5.91868     -145.883 
1.91837e-05      9.91128      125.388 
-0.000256610      13.6403      46.9015 
3.54686e-05      8.14683     -7.33448 
7.19881e-05      13.3389      49.7438 
3.69825e-05      8.89226      37.2325 
-5.37777e-05      8.73028     -141.792 
3.54932e-05      7.69518      29.7650 
0.000175427      8.98442      65.2586 
7.29839e-05      11.8293     -32.2928 
1.88780e-05      6.05124     -69.2884 
-3.70361e-05      10.1021      57.2850 
-1.87905e-05      5.27693     -29.7732 
-0.000123442      10.8827      151.456 
3.67067e-05      7.25186      69.6674 
1.87484e-05      4.67311     -105.641 
5.36421e-05      10.0708     -99.2574 
7.03898e-05      8.11992      166.032 
-0.000173082      12.4320      53.2401 
-3.59661e-05      10.3105     -167.337 
0.000142987      9.49773     -118.833 
-9.06489e-05      13.3939      45.6651 
1.86314e-05      10.9684     -36.4732 
-0.000187474      10.7522      18.0973 
-5.18857e-05      9.95678      100.179 
-8.73046e-05      10.1782      107.262 
0.000131942      7.41172     -104.374 
-6.87799e-05      10.0930      79.3793 
-1.85691e-05      10.2503      8.41483 
5.22251e-05      9.02976      11.7572 
-1.84865e-05      12.0690     -144.783 
-3.56481e-05      9.55221      123.987 
3.62655e-05      9.90653      125.551 
3.45267e-05      10.9771      148.106 
-6.86918e-05      11.8568     -128.494 
-1.83850e-05      10.0392     -160.445 
3.48661e-05      13.4385      43.6742 
-0.000151457      11.9792      39.3773 
0.000134271      4.92754      173.942 
-5.42059e-05      11.5144     -58.7122 
8.72107e-05      11.7387     -121.768 
5.15762e-05      13.1648      138.635 
-5.32093e-05      11.8562     -143.573 
-0.000118199      9.45590      72.1388 
-0.000117591      11.9105      46.2253 
-1.80997e-05      9.78033     -23.6286 
0.000152078      10.0453      178.176 
-5.34098e-05      12.1093      146.521 
-0.000234672      13.1558      133.643 
-0.000101321      8.93207     -111.683 
-8.70854e-05      12.2100     -145.476 
6.79489e-05      4.69041     -138.632 
1.79300e-05      9.01985     -179.619 
-1.79214e-05      6.20080      52.2065 
0.000264458      14.2566      45.7976 
0.000165942      13.0966      41.1600 
3.51792e-05      10.0941     -170.648 
8.42113e-05      12.2949      136.647 
0.000165655      12.9914     -141.878 
-0.000116551      9.71573     -67.8724 
-5.07849e-05      12.2267     -145.530 
-6.77281e-05      9.72643     -87.8778 
6.70440e-05      8.09556      137.201 
-0.000148859      13.7768      46.1763 
8.39368e-05      3.86868      48.5621 
-0.000149491      12.4869     -139.677 
5.04801e-05      8.85601      41.4275 
9.80335e-05      6.60648      92.6040 
1.75137e-05      2.72908      28.4395 
3.45060e-05      11.4764     -33.7732 
-8.26782e-05      10.5000      73.7396 
-6.62004e-05      12.8083      37.0659 
-1.74773e-05      10.4626      107.467 
-9.97877e-05      10.8491      63.6246 
-0.000164498      13.4078      45.7233 
-6.57557e-05      9.77223     -23.5198 
3.41659e-05      12.8777     -132.986 
9.89834e-05      10.9442     -65.2589 
-3.39670e-05      10.0324     -160.554 
3.43836e-05      13.2548     -133.594 
8.28885e-05      9.90187      125.715 
8.18248e-05      4.45238     -107.781 
-1.71076e-05      8.68978      147.881 
-0.000115467      10.5185      153.338 
5.02146e-05      8.01989      110.741 
-0.000131049      12.1256      146.572 
1.71000e-05      2.56821      33.5601 
1.70616e-05      11.2770     -37.7232 
8.13123e-05      8.63992     -38.5153 
-6.55033e-05      11.0551     -148.840 
1.69884e-05      7.24708      69.3113 
1.69335e-05      11.7851      149.170 
-1.69330e-05      7.48132      175.709 
3.28966e-05      4.57168     -42.6918 
-1.69065e-05      8.16889     -14.1703 
-3.28131e-05      5.44897     -155.034 
3.25958e-05      11.5692     -125.145 
-1.68863e-05      12.2737      35.1125 
-8.08242e-05      8.39535      100.292 
-6.54609e-05      11.5964      135.139 
-3.30866e-05      10.5084      73.9787 
-8.10743e-05      10.4812      107.435 
-1.67979e-05      11.9645     -142.402 
-1.67563e-05      9.97796     -176.551 
-4.90399e-05      12.4007     -51.0224 
3.32580e-05      9.48798     -118.726 
-3.27028e-05      11.2342     -153.115 
-4.88075e-05      10.1025      6.36698 
8.09567e-05      11.3054     -37.7416 
-1.66933e-05      11.5317     -58.7645 
-1.67216e-05      8.42433      174.141 
-3.28560e-05      11.3375      60.6305 
4.85028e-05      7.25400      69.1672 
-3.30796e-05      12.7126      126.491 
3.28383e-05      10.1141     -170.666 
1.65988e-05      11.7215     -121.820 
-3.24849e-05      12.3923     -142.873 
4.85006e-05      13.2406     -133.652 
3.26711e-05      7.25379     -10.1649 
-1.65431e-05      11.7129     -57.6946 
-3.20194e-05      9.56839      123.922 
1.65266e-05      10.1948      125.497 
8.04541e-05      9.96419      111.673 
-4.86846e-05      11.0655     -130.454 
1.64624e-05      5.74253     -178.203 
-9.63358e-05      13.5799      42.0750 
3.23278e-05      7.51518      168.329 
-1.64680e-05      9.45875      29.6564 
-6.39117e-05      10.2082     -161.849 
3.20364e-05      13.2319     -129.297 
8.00787e-05      13.5773     -135.598 
1.63948e-05      10.9358     -65.3553 
-1.63982e-05      7.91233     -125.013 
-3.26696e-05      11.8405     -143.517 
1.63835e-05      10.0676     -99.1436 
-3.19859e-05      1.14170      11.1031 
6.39043e-05      11.1552      121.811 
1.62848e-05      9.16085     -154.665 
1.62958e-05      6.91761     -151.506 
-1.63017e-05      4.70147     -68.0203 
1.62984e-05      9.51483     -118.776 
-3.20627e-05      5.47413     -46.3330 
7.95662e-05      10.4192     -110.801 
-1.62482e-05      11.3956     -26.2512 
4.78872e-05      13.3263      49.8078 
-6.33426e-05      12.7242      126.562 
-3.19470e-05      10.8491      153.625 
-6.34655e-05      11.6540      44.3061 
-3.19136e-05      12.0066     -135.203 
-7.96315e-05      11.6643     -129.503 
3.18705e-05      4.72427     -108.513 
-6.34384e-05      12.9176      52.2967 
3.19440e-05      9.78173     -97.4003 
3.18313e-05      10.6685     -142.464 
4.75673e-05      9.44654     -117.485 
-3.18189e-05      11.9930     -142.384 
3.20356e-05      11.7318     -121.901 
3.18608e-05      8.43930      137.879 
-4.74815e-05      10.0613      81.0800 
-1.60913e-05      10.2914     -167.314 
-1.60378e-05      12.0797     -46.0722 
-3.16962e-05      11.7025     -57.7754 
3.17664e-05      14.2557     -135.456 
4.89342e-05      10.6846     -127.469 
1.60056e-05      11.1603      38.4534 
3.16885e-05      12.5411      39.0453 
-1.60023e-05      12.2382     -145.451 
1.60172e-05      12.8911     -133.049 
1.60271e-05      11.6396     -32.6522 
6.30772e-05      12.2095     -128.617 
4.72211e-05      8.97596      65.3761 
1.59223e-05      9.50509     -118.669 
3.15385e-05      12.8268     -135.062 
-3.17490e-05      9.97360     -116.050 
-3.16184e-05      9.95556     -66.9386 
-3.16126e-05      9.46638      29.4891 
3.15933e-05      12.5481     -54.5364 
-3.15817e-05      12.3753      51.7591 
3.14784e-05      9.17823     -160.658 
4.71782e-05      4.44885     -3.60708 
-1.58443e-05      10.8650      151.405 
1.58467e-05      2.54644      32.8144 
-3.13794e-05      12.2549     -145.505 
1.58444e-05      6.13005      162.923 
-1.57881e-05      8.64117      44.5321 
1.58267e-05      10.1659     -113.541 
-1.58192e-05      8.39444     -110.940 
-1.57962e-05      10.3002     -77.0977 
1.58011e-05      9.97884     -80.4251 
1.57449e-05      8.88362     -150.609 
-1.57604e-05      8.74621     -141.875 
1.57388e-05      5.50473     -177.711 
1.57249e-05      8.02682      110.871 
-1.57199e-05      10.8537     -112.881 
-1.57229e-05      6.21325      137.217 
-1.56716e-05      10.0731      79.3581 
-1.56405e-05      10.5457      153.289 
-1.56777e-05      7.89575     -125.098 
-1.56553e-05      4.69420     -68.2411 
-1.56865e-05      13.2687      133.657 
-1.56457e-05      4.46955      136.088 
-1.56304e-05      12.2897      35.0602 
-1.55943e-05      10.3060     -167.447 
1.55529e-05      11.6658     -33.7453 
-1.55622e-05      11.0799     -113.509 
-5.57733e-05      11.3545      60.6788 
-0.000106760      9.47282     -9.60335 
-0.000101937      12.4901     -35.0879 
-6.69427e-05      13.8520     -133.185 
-6.59200e-05      10.3537     -20.4642 
6.53154e-05      13.4959      43.5604 
4.92928e-05      9.75474     -101.470 
-3.30503e-05      8.91228      100.606 
-4.88154e-05      10.2212      37.7650 
-1.65647e-05      13.9020     -44.7070 
-3.21060e-05      9.47609     -9.71966 
-3.20976e-05      8.56307      11.8584 
-3.20440e-05      10.4105      71.6356 
-3.18298e-05      8.55464     -79.0833 
3.19234e-05      5.55018     -69.5437 
1.61628e-05      10.0548     -99.3892 
1.60639e-05      5.32209      178.489 
-1.60509e-05      8.93555     -64.1235 
-3.14947e-05      9.95654     -176.660 
3.15684e-05      8.08019     -159.727 
-1.60044e-05      6.45120     -76.0058 
-1.59380e-05      8.24499     -78.5244 
3.14506e-05      6.11141      162.869 
1.58853e-05      12.8130     -135.000 
-3.15094e-05      8.39209      75.3686 
-1.58829e-05      12.7883     -130.943 
1.58830e-05      12.5382      39.1755 
-1.58380e-05      9.79012     -23.4742 
-1.58490e-05      13.4172     -48.4439 
-1.57939e-05      8.42751      99.9781 
1.57942e-05      11.4618      138.466 
-1.57729e-05      10.6649     -72.6513 
1.57102e-05      10.0741     -99.3711 
1.57082e-05      5.48448     -177.702 
1.56512e-05      1.99406     -45.3964 
1.55400e-05      10.6890     -145.983 
-1.55080e-05      10.6859      73.0233 
! Tentative model.
! Flux (Jy) Radius (mas)  Theta (deg)  Major FWHM (mas)  Axial ratio   Phi (deg) T \
! Freq (Hz)     SpecIndex
-1.62017e-05      12.4900     -35.0897 
