! Center RA: 12 21 31.69052,  Dec: +28 13 58.50011 (2000.0)
! Established model.
! Flux (Jy) Radius (mas)  Theta (deg)  Major FWHM (mas)  Axial ratio   Phi (deg) T \
! Freq (Hz)     SpecIndex
 0.0404064     0.109202     -74.0546 
 0.0127356     0.106066     -81.8699 
0.00398501    0.0335410     -26.5651 
0.00762128    0.0300000      0.00000 
0.00525081     0.120934     -82.8750 
0.00383130    0.0912414     -80.5377 
0.00214777    0.0764853     -78.6901 
0.000405381    0.0424264     -45.0000 
0.00335051     0.105000     -90.0000 
0.00524949    0.0335410      26.5651 
 0.0165751     0.120000     -90.0000 
0.000666840     0.150748      95.7106 
0.00625587     0.165000      90.0000 
 0.0110063    0.0212132      45.0000 
0.00498313     0.165680      95.1944 
0.00807340    0.0335410      63.4349 
0.00464050     0.180624      94.7636 
0.00600967     0.195576      94.3987 
0.00484305    0.0300000      90.0000 
0.00255750     0.135000     -90.0000 
0.00330270     0.135831     -83.6598 
0.00179694     0.210535      94.0856 
0.00296515    0.0450000      90.0000 
0.000411213     0.225499      93.8141 
0.000456198     0.240468      93.5763 
0.00277986     0.152971      101.310 
0.000130068     0.303356      98.5308 
0.00145193     0.320663      100.784 
0.000713946     0.106066     -45.0000 
0.00203929     0.150000     -90.0000 
0.000340417    0.0960469     -38.6598 
0.00191927     0.338415      102.804 
0.00169395     0.167705      100.305 
0.000983104     0.117154     -39.8056 
0.00142196     0.353058      102.265 
0.000268964     0.108167     -33.6901 
0.00218859     0.165680     -95.1944 
0.00148535     0.129035     -35.5377 
0.000319662     0.226991      97.5946 
0.000387596    0.0600000      90.0000 
0.000233859     0.367730      101.768 
0.000225605     0.407492      96.3402 
0.000430038     0.241868      97.1250 
0.000214545     0.171026      105.255 
0.000606255     0.421070      94.0856 
0.000850438     0.593401      106.144 
0.000523253     0.356546      104.621 
0.000257271     0.256759      96.7098 
0.000186662      2.22010      107.700 
0.000122980     0.120934     -29.7449 
6.11814e-05     0.165000     -90.0000 
! Tentative model.
! Flux (Jy) Radius (mas)  Theta (deg)  Major FWHM (mas)  Axial ratio   Phi (deg) T \
! Freq (Hz)     SpecIndex
0.000284911     0.439118      97.8533 
0.00118281     0.303356      98.5308 
9.40367e-05     0.142302      108.435 
0.000470747     0.138293      102.529 
0.000515238     0.456207      99.4623 
0.000915787     0.123693      104.036 
0.000520908     0.471010      99.1623 
0.000325188     0.488365      100.620 
0.000323347    0.0150000     -90.0000 
0.000482700     0.288531      98.9726 
7.87488e-05     0.538540      102.875 
0.000378908    0.0300000     -90.0000 
0.000230913     0.556619      104.036 
0.000368543     0.574913      105.124 
0.000216253      2.21045      108.189 
0.000215839    0.0450000     -90.0000 
0.000345806     0.473630      100.954 
0.000479768     0.593401      106.144 
0.000208072    0.0474342     -71.5651 
0.00192360      2.21518      108.558 
0.000729515     0.135831      96.3402 
0.000382626    0.0618466     -75.9638 
0.000491749     0.320663      100.784 
0.000172979     0.120934      97.1250 
0.000561903     0.612066      107.103 
0.000509798     0.458912      101.310 
0.000485859    0.0764853     -78.6901 
0.000608529     0.353058      102.265 
0.000325594     0.444213      101.689 
0.000507687     0.630892      108.004 
0.000391629    0.0912414     -80.5377 
0.000112758     0.429535      102.095 
0.000511138     0.106066     -81.8699 
0.000261081     0.649865      108.853 
0.000609634     0.120000      90.0000 
0.000150055     0.668973      109.654 
9.74386e-05     0.688204      110.410 
0.000184177    0.0474342     -18.4349 
0.000368358     0.120934     -82.8750 
4.79429e-05     0.707549      111.125 
0.000232737     0.713092      112.249 
0.000137992     0.338415      102.804 
0.000349854     0.732700      112.891 
0.000217789      2.20582      109.051 
0.000603405     0.135831     -83.6598 
4.27675e-05    0.0450000      0.00000 
4.20083e-05      2.22471      108.068 
0.000402631     0.752396      113.499 
0.000162188    0.0618466     -14.0362 
0.000123417      2.20168      109.916 
0.000156085      2.23440      107.583 
0.000267174      2.19277      110.418 
0.000185172     0.106066      81.8699 
0.000403458     0.772172      114.075 
7.59155e-05    0.0600000      0.00000 
0.000213157    0.0764853     -11.3099 
0.000275281      2.24424      107.103 
3.66642e-05     0.138293     -77.4712 
0.000909927     0.152971     -78.6901 
0.000106761      2.19805      110.785 
7.16356e-05      2.76688      110.302 
0.000239962      2.77212      110.592 
0.000225809     0.305941      101.310 
0.000234852     0.785891      113.629 
0.000617232      2.18403      110.925 
0.000166812      2.87926      108.529 
0.000385792      2.40973      108.886 
0.000132249    0.0948683     -18.4349 
0.000158056     0.485824      98.8807 
0.000151533     0.120934      82.8750 
3.25865e-05      2.75808      110.702 
0.000218349      2.89348      108.435 
3.22153e-05      2.77743      110.882 
0.000126595     0.792023      114.624 
0.000125906     0.468855      97.3524 
6.37472e-05    0.0912414     -9.46232 
0.000359160      2.76342      110.993 
0.000212037     0.947378      113.318 
0.000352781     0.109202     -15.9454 
0.000310729      2.23988      106.736 
0.000259988     0.778412      115.084 
0.000230868     0.483735      97.1250 
5.87422e-05      2.89826      108.716 
0.000169460     0.961171      112.964 
5.65174e-05     0.342053      105.255 
0.000193562      2.91247      108.622 
0.000411817      2.76883      111.283 
0.000185343     0.482105      95.3558 
0.000211072     0.128160     -20.5560 
7.80132e-05     0.286575      96.0090 
0.000610829      2.18943      111.291 
0.000426999     0.967122      113.782 
0.000104153     0.109202      74.0546 
2.69374e-05     0.560446      105.524 
0.000204806     0.784889      116.075 
7.50992e-05     0.360624      106.928 
0.000885379     0.167705     -79.6952 
0.000199677      2.91730      108.901 
2.59860e-05     0.563649      115.201 
2.53102e-05     0.465967      93.6914 
0.000167920      2.23560      106.368 
0.000483306     0.142302     -18.4349 
9.71458e-05     0.570197      116.565 
0.000276780     0.270416      93.1798 
9.74560e-05     0.480937      93.5763 
7.31899e-05      2.41463      109.223 
7.15336e-05     0.465242      91.8476 
0.000205683     0.791596      117.051 
0.000210636     0.123693      75.9638 
0.000365524      2.77431      111.571 
9.19884e-05      2.93149      108.806 
0.000301085      2.43375      109.440 
0.000156073     0.480234      91.7899 
4.53371e-05     0.577062      117.897 
0.000561345     0.986927      114.228 
0.000706665      1.02231      67.5741 
0.000226665      2.21701      106.105 
0.000380412      2.93636      109.083 
4.34168e-05     0.556821      117.255 
0.000220440     0.798530      118.009 
0.000163464     0.480000      90.0000 
0.000157204     0.563848      118.610 
0.000219719     0.161555     -21.8014 
3.99301e-05     0.365274      109.179 
1.99095e-05     0.785318      118.523 
0.000289009      1.90311      110.292 
0.000436160      2.20887      111.512 
0.000286249     0.480234      88.2101 
3.81741e-05     0.156605     -16.6992 
0.000128863      2.77986      111.859 
0.00173126     0.175570     -19.9831 
1.85254e-05     0.792591      119.476 
0.000226752     0.128160      69.4440 
1.83111e-05     0.577062      98.9726 
8.90206e-05      2.79379      111.744 
0.000106501     0.805683      118.951 
0.000135631     0.571183      119.932 
0.000538654      1.01669      68.3556 
0.000114960      2.21289      105.732 
0.000199192      2.94130      109.359 
3.45233e-05     0.574913      97.4959 
9.34082e-05     0.255000      90.0000 
0.000272058     0.993177      115.017 
3.29449e-05     0.384480      110.556 
0.000114932     0.813050      119.876 
0.000285680      2.43878      109.772 
0.000187130     0.171026     -74.7449 
0.000220528      2.79938      112.029 
3.24352e-05     0.589788      97.3058 
0.000579016      1.89796      109.867 
0.000180006     0.480937      86.4237 
3.13749e-05     0.944524      100.061 
0.000332982      3.00364      101.815 
6.09330e-05     0.550727      119.358 
4.59417e-05     0.820625      120.784 
6.07389e-05      5.55553      147.683 
4.53473e-05     0.588069      95.8560 
0.000208387     0.959297      99.9042 
5.92604e-05      2.94631      109.634 
6.93359e-05     0.390000      112.620 
0.000138817     0.826226      86.8779 
5.82486e-05     0.828402      121.675 
0.000112327      2.19046      105.083 
0.000212721      5.56821      147.766 
0.000122889     0.558234      120.700 
4.30526e-05      2.80504      112.313 
0.000188158     0.999612      115.796 
4.20881e-05      2.98895      101.874 
0.000354228     0.185540     -75.9638 
6.87522e-05      2.84494      104.036 
0.000110326      2.93038      111.311 
4.19588e-05     0.586728      94.3987 
1.41026e-05     0.886143      123.959 
8.08614e-05     0.142302      71.5651 
0.000164728      2.58488      111.801 
7.97663e-05      1.03326      80.8112 
1.39661e-05      2.85950      103.963 
4.14833e-05     0.906973      124.216 
2.75916e-05     0.465967      86.3086 
0.000133437      2.21442      111.873 
4.06399e-05      2.79117      112.430 
0.000117497     0.915492      124.992 
1.34912e-05      2.08262      109.348 
7.78265e-05     0.585769      92.9357 
0.000101505      2.07770      108.958 
0.000145445      2.85591      103.671 
0.000186710     0.467172      84.4725 
0.000101357      2.93586      111.584 
9.84238e-05      2.18661      104.704 
7.40208e-05      2.79693      112.714 
0.000512542     0.827179      85.8404 
6.74657e-05     0.240468      86.4237 
3.65294e-05     0.409695      113.749 
0.000135099     0.134164      63.4349 
0.000150298     0.566039      122.005 
0.000151517     0.936389      125.218 
0.000146769      1.03097      81.6341 
0.000118420      1.07760      106.164 
1.23002e-05     0.585192      91.4688 
0.000211923      1.00623      116.565 
7.05665e-05      2.94982      111.477 
5.80937e-05     0.600000      90.0000 
0.000278754      5.58091      147.848 
4.67963e-05      2.94142      111.856 
3.47148e-05      2.07288      108.566 
0.000116406      3.12508      104.170 
8.81586e-05      2.16463      104.036 
8.63487e-05      2.80275      112.997 
0.000139346      1.08187      106.928 
1.14159e-05     0.600750      87.1376 
2.23527e-05     0.602993      84.2894 
0.000408854     0.182483     -80.5377 
3.29127e-05      2.06815      108.172 
3.16864e-05     0.415963      115.641 
0.000188859      2.84134      103.743 
9.48673e-05      2.95534      111.747 
1.09176e-05     0.604669      82.8750 
0.000249703     0.945119      125.961 
0.000116053     0.621550      81.6743 
3.13013e-05      2.23394      112.087 
1.05862e-05      2.06041      106.060 
0.000146488     0.574130      123.275 
2.05139e-05      2.06352      107.776 
1.03785e-05      2.16104      103.650 
0.000282236      1.89291      109.440 
0.000195459      1.09623      106.699 
1.02757e-05      2.14647      103.745 
0.000153827      2.44390      110.103 
5.72724e-05      2.05631      105.658 
0.000105752      2.14295      103.355 
0.000218654      2.23963      112.443 
0.000264330     0.468855      82.6476 
0.000122175      1.02890      82.4606 
3.79123e-05     0.600187      91.4321 
0.000141135      2.96093      112.017 
7.59689e-05     0.129035      54.4623 
7.55167e-05      2.80865      113.279 
5.45546e-05     0.422670      117.474 
0.000107939      1.17154      92.9357 
0.000121757      2.59049      112.109 
1.86524e-05      2.05899      107.379 
0.000336360      3.13963      104.103 
7.86981e-05      2.85241      103.379 
0.000102788      2.13954      102.965 
0.000166008      1.01303      117.324 
0.000143590      3.13963      112.767 
3.46117e-05      2.05456      106.980 
5.08011e-05     0.141510      57.9946 
0.000112123     0.582495      124.509 
0.000172827      2.81461      113.559 
0.000641216      2.55026      103.955 
0.000343375     0.226991      82.4054 
8.50085e-05      2.96659      112.286 
0.000117368     0.623899      80.3112 
0.000350939     0.171026     -15.2551 
0.000102555      5.52073      148.556 
0.000621659      1.18652      92.8986 
0.000142679      1.10064      107.447 
6.82996e-05     0.409420      118.443 
8.26033e-06      2.05232      105.255 
5.31232e-05     0.766176      113.051 
4.69271e-05      2.05023      106.579 
0.000129326      2.12159      102.661 
0.000136568     0.594916      123.690 
0.000760122      2.83782      103.449 
0.000278974      3.14546      113.019 
3.04739e-05      5.59361      147.929 
0.000101489     0.138293      49.3987 
7.80642e-06     0.429796      119.249 
0.000136848     0.954005      126.690 
2.26169e-05      1.92544      117.364 
0.000218571      2.24540      112.797 
0.000198385      1.91912      117.967 
2.85210e-05      2.04600      106.176 
9.35109e-05      1.88798      109.011 
8.76042e-05     0.626598      137.911 
4.13979e-05      1.04377      82.5686 
0.000144609      5.60159      147.799 
0.000215287      2.11835      102.265 
7.76936e-05      1.02000      118.072 
4.86685e-05      2.95271      112.396 
0.000148595     0.416773      120.256 
5.19688e-05      2.04187      105.772 
0.000173759     0.760427      112.011 
0.000144704      1.10523      108.189 
0.000220425      2.95846      112.665 
2.60963e-05     0.471010      80.8377 
5.75612e-05      2.44909      110.433 
0.000175712      1.04581      81.7537 
0.000101231     0.626598      78.9591 
0.000154048     0.200125     -77.0054 
0.000121015     0.456207      80.5377 
5.41338e-05      1.20906      127.439 
0.000132472      2.82064      113.839 
0.000234199     0.637809      138.814 
1.20589e-05      3.15136      113.270 
9.13276e-05      2.59617      112.416 
6.33214e-05      2.03785      105.366 
8.30586e-05      5.51292      148.689 
8.40436e-05      1.88314      108.579 
0.000147542      3.15927      112.913 
0.000184121      1.91301      118.575 
2.80672e-05      1.02638      116.940 
0.000278057      1.23009      127.569 
0.000166489      2.11521      101.868 
2.57440e-05     0.782304      122.471 
0.000217397      2.25125      113.148 
9.35566e-05      2.03392      104.959 
0.000149803      1.11000      108.925 
5.35022e-06      1.90712      119.186 
3.57337e-05      1.89855      121.430 
7.52182e-05      1.01967      116.188 
3.48853e-05      1.09582      109.179 
0.000231136     0.458912      78.6901 
5.81595e-05      1.87842      108.146 
7.61098e-05     0.792023      65.3764 
0.000220383      3.16514      113.163 
6.24690e-05      1.90642      121.814 
0.000111375     0.963042      127.405 
0.000107402      2.07353      118.048 
0.000164408     0.204022     -72.8973 
0.000100294     0.586728      122.471 
5.58654e-05      1.87380      107.710 
0.000124308      2.82673      114.117 
6.54451e-05      2.03010      104.550 
1.06716e-05      2.45437      110.761 
0.000195165      2.11218      101.470 
9.14927e-05      5.50011      148.607 
5.89198e-05      1.89986      118.791 
0.000183391     0.768960      110.556 
0.000467650      1.23929      128.118 
8.09162e-06     0.790459      123.389 
4.87267e-05      2.58231      112.543 
0.000124276      1.01314      115.427 
3.28887e-05     0.641327      79.2157 
8.06591e-06      1.04807      80.9421 
0.000109901      3.15418      104.036 
5.69969e-05      1.86929      107.272 
7.07012e-05      1.90169      122.437 
9.68911e-05     0.424529      122.005 
0.000165009     0.798389      64.3978 
8.39982e-05      1.06289      81.0694 
3.97138e-06      1.10084      109.916 
3.96534e-05     0.825545      87.9174 
0.000329882      1.11496      109.654 
5.11035e-05      1.91607      99.4623 
0.000101521      1.90589      118.179 
1.64466e-05     0.777978      123.996 
5.65388e-05      2.94463      112.777 
6.28592e-05      1.86489      106.832 
1.03913e-05      2.02744      105.887 
6.89582e-06      5.50794      148.474 
9.36107e-05      1.91366      99.0193 
3.28336e-05      3.20066      101.626 
4.92786e-05     0.233345     -45.0000 
5.72515e-05      2.58810      112.850 
-0.000406658      5.49199      145.572 
0.000190503      2.23157      112.946 
1.94900e-05      1.79725      123.425 
6.54493e-06      2.03160      106.294 
9.46547e-06     0.644302      77.9052 
2.49196e-05      2.83290      114.394 
0.000188475      5.35996      147.689 
0.000128395      3.17309      112.807 
1.52273e-05      5.58890      147.718 
0.000241831      1.20234      93.5763 
0.000244562      3.32344      110.889 
8.17542e-05     0.462088      76.8660 
0.000146394      1.78475      123.690 
4.69579e-05      3.21536      101.572 
3.13925e-06      2.03586      106.699 
6.30221e-05     0.607454      122.905 
6.35464e-05      2.09383      118.217 
2.42278e-05      1.86060      106.390 
5.83718e-05      1.90978      122.816 
3.04481e-06      2.04924      107.904 
0.000120281      1.06066      81.8699 
8.00255e-05     0.649173      139.686 
3.83732e-05      2.45973      111.088 
3.16797e-05      1.84201      106.074 
2.02197e-05      2.82550      114.796 
8.57285e-06      2.05390      108.303 
2.21211e-05      1.76165      128.431 
4.62702e-05     0.825136      88.9584 
9.97263e-05     0.244182     -47.4896 
0.000121579      2.10925      101.070 
2.93704e-05      2.83182      115.072 
0.000100541      1.83791      105.624 
3.79102e-05      2.93885      112.507 
3.89020e-05      1.89885      99.0903 
0.000124192      3.31106      103.092 
2.85557e-05      1.89268      118.393 
2.13751e-05      2.05866      108.699 
9.43378e-05      3.20372      101.889 
1.23610e-05      5.59693      147.588 
0.000242625     0.763823      109.502 
7.53607e-05     0.465725      75.0686 
8.46514e-05      1.60612      124.729 
7.59440e-05     0.411886      123.111 
6.77709e-05      2.59396      113.155 
3.05383e-05      3.17107      113.412 
2.44732e-05      2.83821      115.346 
5.36157e-05      1.91795      123.193 
0.000159352     0.342710      156.801 
9.98196e-05      1.12009      110.376 
5.73139e-05      1.91137      98.5752 
9.63823e-05     0.804984      63.4349 
9.93184e-06      2.06352      109.093 
3.35493e-05      1.89654      98.6428 
9.15368e-05      2.84467      115.619 
4.94769e-05      1.83393      105.173 
2.95356e-05      2.18341      102.700 
2.25860e-06      1.77102      128.811 
5.95395e-05     0.469814      73.3008 
1.78017e-05      2.10096      118.578 
-0.000188566      1.27720      86.6335 
2.17087e-06      5.58427      147.505 
2.13638e-06      2.85698      102.431 
2.49025e-05      1.75935      129.118 
1.62048e-05      1.82267      103.808 
1.18269e-05      3.32571      109.497 
7.47726e-06      5.59235      147.376 
6.04999e-05      1.69765      117.924 
2.64353e-05      1.92620      123.566 
2.66511e-05      2.59218      113.895 
1.97882e-06      2.44574      111.214 
5.93189e-05      2.94703      112.126 
7.18343e-05      1.81915      103.349 
1.95064e-06      3.15057      103.772 
6.38533e-05      2.16878      102.787 
6.96651e-05      1.07771      81.1932 
4.03793e-05      3.33490      109.168 
6.26987e-05     0.474342      71.5651 
6.35378e-05      1.26036      128.234 
3.59362e-06      2.84233      102.496 
3.64856e-05      3.16162      103.443 
2.93820e-05      2.59829      114.198 
2.40265e-05      3.32882      111.130 
8.77512e-06      1.95536      124.056 
2.54850e-05      1.79311      124.089 
4.20586e-05      1.90919      98.1301 
-8.28111e-05      3.10243      107.734 
2.23316e-05      1.76886      129.495 
3.35627e-05      2.01408      124.992 
6.60873e-06      5.57972      147.293 
1.77865e-05      3.19218      102.208 
1.30218e-05      2.53571      104.036 
2.53523e-05      3.18117      112.454 
3.28464e-06     0.972227      128.108 
1.89912e-05      1.28213      118.664 
1.72316e-05      2.45217      113.429 
4.95291e-05      1.20150      92.8624 
6.39960e-06      2.60448      114.499 
2.77976e-05      1.24861      128.660 
1.58293e-06     0.840134      88.9770 
1.58198e-06      1.81574      102.888 
2.44233e-05     0.479296      69.8637 
-2.13010e-05      1.23009      105.562 
6.11248e-06      5.58784      147.163 
1.67362e-05      2.59712      114.937 
7.48778e-06      2.93314      112.237 
4.48431e-06      1.89434      98.1943 
4.46215e-06      1.27500      118.072 
5.92099e-06      3.18936      112.102 
1.48176e-06      1.75731      129.806 
