! Center RA: 12 21 31.69052,  Dec: +28 13 58.50011 (2000.0)
! Established model.
! Flux (Jy) Radius (mas)  Theta (deg)  Major FWHM (mas)  Axial ratio   Phi (deg) T \
! Freq (Hz)     SpecIndex
  0.114969      0.00000      0.00000 
 0.0309937    0.0202604      180.000 
 0.0814720    0.0286526     -135.000 
 0.0663089     0.107434      68.2729 
 0.0351169     0.223431      79.7468 
 0.0220679     0.243395      80.5958 
 0.0402006    0.0202604     -90.0000 
 0.0226294     0.240977      85.1771 
 0.0140782     0.126477      71.6725 
0.00607661     0.220795      84.7351 
0.00195675     0.247514      75.9638 
0.000963445     0.227911      74.7283 
0.00293378     0.101837      78.5245 
0.000476059    0.0286526      135.000 
0.00400130     0.262662      81.2912 
0.000504841     0.145849      74.1761 
0.00195421     0.280627      85.8598 
0.000500671    0.0802914      90.0000 
0.00416951    0.0600310      90.0000 
0.000921528     0.204262      78.7726 
0.000485099     0.164706      76.0271 
0.00365284     0.300838      86.1384 
0.000918962     0.184432      77.5470 
0.00311001     0.170734      69.4145 
0.00129480    0.0397705      90.0000 
0.00244387     0.320306      86.3734 
0.00121492    0.0202604      90.0000 
0.00120756     0.152624      66.8384 
0.000390149    0.0828082      75.8378 
0.000758885     0.188432      58.0188 
0.000384934     0.340529      86.5891 
0.000382385    0.0202604      0.00000 
0.000745729     0.134233      63.4349 
0.000377902     0.240124      90.0000 
0.00181829    0.0286526     -45.0000 
0.000373847     0.339925      90.0000 
0.00244151     0.219863      90.0000 
0.00309552     0.360186      90.0000 
0.000706956     0.172194      54.5784 
0.000681107    0.0998015      90.0000 
0.00258820    0.0446338     -63.0042 
0.000671651     0.212689      48.7190 
0.000647853     0.101837      101.476 
0.000323610     0.184676      49.4492 
0.000931823     0.201375      95.7743 
0.000620716     0.240790      48.4109 
0.00401672     0.379696      90.0000 
0.000310850     0.156126      50.2649 
0.00173399     0.220795      95.2649 
0.00115788     0.126477      108.327 
0.00173175    0.0562440     -45.0000 
0.000580015     0.141141      45.0000 
0.00110859     0.269397      48.0484 
0.000566046     0.169793      45.0000 
0.00706362    0.0720098     -56.4755 
0.00174709     0.156126      39.7351 
0.00170081     0.204262      101.227 
0.00140867     0.134233      116.565 
0.00304616     0.380236      93.0544 
0.00157423     0.283342      45.0000 
0.00136038     0.223431      100.253 
0.000445543     0.172194      35.4216 
0.00234326     0.493986      68.6188 
0.000611690     0.144435      33.7726 
0.000209305     0.400469      92.8999 
0.000206669     0.381773      95.9795 
0.000678547     0.152624      113.162 
0.00117378     0.401929      95.6787 
0.00208679     0.209153      106.680 
0.00139878     0.310934      45.0000 
0.000377844     0.161670      29.7779 
0.000374672    0.0720098     -33.5245 
0.00124157     0.404436      98.5360 
0.000491193     0.144435      123.773 
0.000493990     0.227911      105.272 
0.000179278     0.134233      26.5651 
0.00225464    0.0848966     -45.0000 
0.00236408     0.152624      23.1616 
0.000169281     0.512905      69.4440 
0.00256606     0.407936      101.351 
0.00312292     0.520365      67.3547 
0.000312751     0.501727      66.4638 
0.000835666     0.325575      42.4780 
0.00214787     0.601626      93.7903 
0.00135309     0.412220      104.011 
0.000364306     0.156126      129.735 
0.00291511     0.161670      119.778 
0.000872902     0.145849      15.8239 
0.000130569     0.474259      117.619 
0.000128318     0.421988      58.5994 
0.000128042     0.510656      120.559 
0.00140187     0.312731      39.8408 
0.00144691     0.521249      122.478 
0.00105762     0.432889      56.3099 
0.00196235    0.0896014     -63.6495 
0.00279065     0.603304      95.7106 
0.00115620     0.247514      165.964 
0.00126338     0.170734      20.5855 
0.000847588     0.416183      54.7625 
0.000383381     0.340220      40.2586 
0.000189362     0.532403      124.317 
0.00210552    0.0828082     -75.8378 
0.000273594     0.622720      95.5320 
0.000758162     0.560155      124.797 
0.00111902     0.327950      37.6565 
0.00126033     0.761182      92.9950 
0.000603121     0.243395      170.596 
0.000449975     0.427737      52.6275 
0.000219148     0.571959      126.464 
7.07468e-05     0.355922      38.1504 
0.00136625     0.449253      57.6903 
0.000459440     0.503350      83.1504 
0.000511781     0.297458      42.3417 
0.000173270     0.501338      85.4500 
0.00120530     0.727252      97.8876 
8.56249e-05     0.181229      96.4188 
8.26026e-05     0.500168      87.6785 
0.000312504    0.0633577     -71.3505 
0.00137062     0.882249      86.0984 
8.13476e-05     0.184432      102.453 
0.000307819     0.164706      103.973 
7.34584e-05     0.116465      148.973 
0.00135096     0.459977      55.6359 
0.00126367     0.903290      84.9004 
0.000140411     0.398226      107.547 
0.000340339     0.746582      97.6822 
7.02118e-05     0.107434      158.273 
0.000308761     0.126477      161.673 
0.00113789     0.840993      107.982 
0.000252452     0.379669      108.435 
0.000116217     0.764371      96.0296 
0.000116158     0.360505      109.453 
0.000564587     0.107434     -68.2729 
5.67078e-05     0.315980      34.7468 
5.61479e-05     0.367749      112.431 
0.000260472     0.344213      35.5958 
5.47986e-05     0.446997      100.348 
0.000207162     0.349107      113.700 
0.000203878     0.141777      171.784 
5.33076e-05     0.781960      94.4029 
0.000244928     0.780666      92.9202 
0.000579060     0.576909      123.649 
0.000140099     0.357396      116.565 
0.000348700     0.360880      33.7231 
0.00114620      1.42409      100.505 
0.000134291     0.847467      109.285 
0.000348907     0.456152      52.1498 
0.000135360     0.161111      172.776 
4.62617e-05     0.862036      86.0068 
4.60455e-05      1.11816      100.322 
9.00150e-05     0.101837     -78.5245 
0.000175786     0.369026     -102.567 
4.47855e-05     0.923472      85.0121 
0.000211707      1.13167      98.1194 
0.000273337     0.799913      90.0000 
4.42914e-05     0.509832      64.4533 
0.000171057     0.942149      86.3468 
8.65336e-05     0.350038      120.964 
0.000436983     0.384412     -98.9843 
0.000387247     0.172194      125.422 
0.000126597     0.536933      63.4349 
4.18932e-05     0.841826      85.9107 
8.15214e-05     0.366905      119.396 
8.09149e-05     0.120062     -90.0000 
0.000344645     0.753987      68.2092 
0.000118698     0.181229      173.581 
0.000985366      1.23208      76.8694 
0.000156278      1.12908      97.1392 
0.000153433     0.360880      123.723 
0.000120042      3.10043      91.1094 
0.000912336      1.40417      100.655 
0.000330302      3.10010      90.7351 
0.000185444     0.377263      32.0779 
0.000737388      3.12069      91.1022 
0.000138292     0.468857      50.1944 
0.000110396     0.141777     -98.2159 
0.000250963     0.404436     -98.5360 
0.000140270     0.201375      174.226 
3.65300e-05     0.866617      108.843 
0.000288763      1.14614      96.0129 
0.000171258     0.372066      126.223 
0.000168461     0.563176      62.5472 
0.000722884     0.604406      124.223 
0.000101863      1.13029      103.280 
0.00148278     0.735213      67.6230 
6.89100e-05     0.164706     -103.973 
6.70635e-05     0.394577      30.5153 
0.000590183      2.98407      86.9297 
0.000219770     0.316312     -108.392 
3.34292e-05     0.466621      46.7594 
0.00106994     0.422095     -95.4065 
0.000125279     0.189835     -108.435 
0.000501449     0.820423      88.5849 
0.000267499     0.220795      174.735 
3.25354e-05     0.560155      34.7971 
6.30553e-05     0.572799      60.7486 
3.18532e-05     0.421988      31.4006 
0.000120695      1.13512      104.275 
0.000152195     0.566331      32.0054 
0.000178424     0.384386      128.660 
0.000960910      2.71047      101.061 
6.06735e-05     0.959959      88.7907 
0.000302818     0.297155     -109.625 
0.000120869     0.600426      60.0064 
2.96577e-05     0.438758      30.0730 
2.86255e-05     0.456404      28.7984 
2.82774e-05     0.610413      58.4202 
0.000108000      1.30028      88.2473 
0.000690392     0.215843     -111.838 
8.26418e-05     0.582967      30.9891 
0.000101352      1.16438      94.9170 
0.000156643      1.60109      76.9993 
2.77392e-05     0.672210      53.4883 
0.000130709      1.14028      105.262 
0.000157168     0.684458      52.1250 
0.000104977     0.396866      130.860 
2.71872e-05     0.278155     -111.026 
0.000658198      3.44000      89.3376 
2.68969e-05     0.980005      90.0000 
0.000303065     0.593248      32.6046 
0.000561914      2.96575      86.5186 
0.000364106      1.61646      77.8607 
0.000367703     0.240977      175.177 
6.33947e-05      3.43983      89.6625 
6.92617e-05     0.980215      91.1844 
0.000120674      1.29983      89.1069 
0.000347685     0.696607      50.8582 
9.45922e-05     0.381773      132.849 
4.16227e-05      3.42050      89.3338 
4.58989e-05     0.491629      26.5651 
8.79033e-05     0.873371      110.101 
0.000243574      1.14557      106.203 
2.31881e-05      3.12114      91.4741 
0.000110175      1.38074      100.015 
4.50334e-05      1.44706      101.153 
0.000503188      1.29967      90.0000 
0.000181297     0.395830      135.000 
0.000359561     0.588377      125.291 
0.000236283     0.821137      87.2239 
0.000189352      2.29418      75.3547 
0.000180565      1.47094      101.774 
0.000207761      3.14196      91.8203 
0.000162201      2.94684      86.1015 
0.000581999      1.18457      94.8330 
0.000242311      1.35811      99.3166 
0.000356409      2.29939      74.8662 
0.000289182     0.610413      31.5798 
0.000133083      2.23991      79.1870 
0.000596400      3.00333      87.3220 
0.000342796     0.260423      175.538 
0.000700445     0.709570      49.5893 
0.000665025      1.21309      76.6600 
0.00107135     0.440193     -92.6380 
0.000809159      2.56665      85.9764 
3.59706e-05     0.188432      121.981 
0.000201916      3.46003      90.0000 
0.000310705      1.49483      102.348 
0.000116441     0.410407      137.000 
1.79325e-05      1.63145      78.7004 
0.000377250      2.23619      79.6969 
0.000442926      1.65132      78.8381 
0.000410650      2.30456      74.3980 
0.000225553     0.800901      87.1537 
0.000118387      3.40053      88.9885 
0.000288545      1.33505      98.6311 
0.000191184     0.205897      118.994 
0.000574213     0.600310      126.870 
3.14187e-05      3.16146      91.8090 
1.55904e-05     0.980812      92.3239 
3.00887e-05     0.483220      24.4955 
0.000129481     0.760096      116.565 
0.000336870      3.48035      90.3335 
0.000241984      3.16216      92.1759 
0.000135729      2.73356      101.399 
6.47471e-05     0.424884      138.795 
5.25703e-05      3.40095      88.6472 
2.80977e-05     0.310708     -104.976 
0.000144061     0.627763      30.6114 
7.39429e-05     0.501727      23.5362 
0.000216182      2.56828      81.4982 
0.000109416     0.291183     -106.006 
0.000188116      2.31009      73.9140 
0.000356063     0.280627      175.860 
0.000225980      1.15139      107.171 
0.000420105      1.51830      102.937 
0.000182342      1.70672      100.129 
0.000100127      2.65158      78.6901 
0.000202959     0.769370      117.915 
3.62815e-05     0.590559      61.7091 
0.000397585      3.38070      88.6391 
0.000104038      2.75342      101.316 
0.000605092      2.67547      78.3497 
8.85696e-05      2.21626      79.6032 
0.000267202      2.29709      73.2936 
0.000152844     0.780666      87.0798 
0.000259644      2.92802      85.6936 
7.94716e-05     0.440329      140.532 
0.000196289     0.271765     -107.184 
0.000160962      1.31209      97.8891 
0.000468976      2.61329      106.910 
3.79291e-05      2.69059      101.144 
0.000103129      2.21270      80.1192 
0.000176128     0.644631      29.7283 
3.22361e-05     0.441522     -95.1680 
8.87277e-05     0.493986      21.3812 
8.60113e-05      1.29983      90.8931 
7.75230e-05     0.746703      69.6529 
0.000195240      1.71026      100.773 
0.000134252      3.49986      90.3317 
5.69250e-05      1.12613      106.491 
9.07092e-06     0.234065     -110.062 
0.000128336     0.778695      119.183 
0.000294431      2.30278      72.8286 
0.000195766     0.279894      180.000 
5.86875e-05     0.233573      120.932 
9.27134e-05      3.02269      87.7236 
8.62950e-05     0.253192     -108.489 
0.000129022      3.18241      92.1621 
6.27627e-05     0.456152      142.150 
3.30959e-05      2.19348      80.0318 
3.87086e-05      2.67145      101.225 
0.000179500      2.19707      79.5114 
4.09243e-05     0.483985      60.2551 
2.61808e-05     0.518891      62.4344 
3.46947e-05      1.28157      92.6848 
6.58267e-05      1.51390      102.190 
8.50959e-05     0.460433     -92.5220 
5.58899e-05      2.67547      101.650 
0.000119682     0.600426      150.006 
6.39588e-05      3.48237      91.9758 
1.96673e-05      1.57201      75.2606 
3.19747e-05      1.29010      97.1167 
3.68987e-05      1.66758      79.6306 
1.29881e-05     0.781960      85.5971 
3.12473e-05     0.300838      176.138 
9.07717e-05      2.30884      72.3483 
4.97156e-05      1.13205      107.474 
-0.000182893      1.10008      117.019 
5.90500e-05      1.71416      101.438 
5.22254e-05      1.29703      116.565 
3.49249e-05      3.52007      90.0000 
2.33551e-05     0.512905      20.5560 
1.74386e-05     0.612215      128.331 
2.30817e-05     0.662301      28.8591 
4.01192e-05     0.788772      120.468 
5.80858e-06      1.57729      74.5488 
1.13723e-05      1.29277      98.0078 
5.66063e-06      2.57136      81.0517 
1.67612e-05      1.18645      95.8079 
5.61882e-06      1.56315      73.6617 
5.58363e-06     0.618057      150.945 
-0.00103257      3.10139     -16.0977 
0.000654248      11.4353     -122.357 
-0.000542291      10.9137     -145.001 
0.000447663      9.56533     -94.1974 
0.000245611      5.91274     -36.0584 
-0.000299014      6.29980     -22.9826 
-0.000598232      9.05556      173.658 
0.000444091      5.49760     -50.4608 
-0.000435234      9.11757     -120.446 
0.000615052      9.25655      131.056 
0.000370771      8.88206     -109.741 
0.000367650      1.07548     -99.6398 
0.000280352      3.86069      145.973 
0.000422787      5.40862     -104.347 
0.000462488      10.4529     -164.234 
0.000456665      5.92425     -36.2109 
-5.72951e-05      11.1587     -135.218 
0.000164360      2.95302     -148.572 
-0.000111324      12.0554      46.8816 
-0.000255286      10.6566     -132.794 
0.000251788      2.38158      178.068 
-5.54295e-05      8.79603      126.400 
5.53353e-05      11.3011      38.5327 
0.000301542      7.47678      158.998 
-0.000445725      8.78205     -96.8014 
-0.000156860      6.94300     -169.211 
0.000205466      12.8156     -46.2645 
0.000299098      5.30374     -145.287 
-0.000527272      9.58330     -10.5805 
0.000200395      13.5167      42.6625 
-0.000292740      8.11151      76.8894 
0.000390021      3.48997     -4.26643 
-0.000339145      8.78447      126.297 
-0.000197218      9.48601      130.811 
-0.000198778      9.16586     -70.4970 
-0.000285539      12.0416      46.9520 
0.000289186      11.2852      38.5967 
-5.27590e-05      11.1444     -135.292 
-0.000152204      9.14124      176.112 
0.000477887      3.87164      145.734 
-0.000144773      6.31846     -22.9109 
0.000150223      10.3928      24.1981 
-0.000327487      10.8860     -145.024 
-0.000425059      7.33135      174.679 
-0.000144499      3.19947     -132.472 
-5.10829e-05      9.83857     -32.0415 
0.000100637      2.97033     -148.776 
-0.000237920      10.2807      119.358 
-5.03632e-05      4.02251     -105.283 
-0.000325660      9.84933     -32.1414 
-0.000186596      9.26344     -33.5523 
-9.47469e-05      9.63786      163.485 
4.89964e-05      9.39174      153.707 
0.000186707      6.08705      54.9032 
-0.000225396      4.00297     -105.360 
-4.82195e-05      11.1583     -135.362 
-9.30113e-05      10.2281     -87.7590 
0.000294453      10.1014      146.060 
0.000181965      2.96364     -148.238 
-0.000181669      9.12103      176.103 
-0.000179390      6.92059     -42.7722 
0.000224813      10.3750      24.2423 
9.13732e-05      10.9606     -44.4841 
-4.67920e-05      5.15752      150.754 
0.000220503      10.9467     -44.5556 
0.000136130      10.8264      141.902 
8.98721e-05      5.48520     -50.6179 
8.87850e-05      9.37358      153.652 
-0.000133701      1.92192      92.3943 
0.000135172      7.80836      116.629 
-8.97859e-05      8.03450     -176.573 
-8.81246e-05      6.13557     -131.435 
4.51643e-05      8.94886      161.769 
-0.000131447      8.98598     -65.5473 
8.88035e-05      11.4458     -122.440 
-0.000407465      5.18510      150.668 
4.48892e-05      4.60967      151.215 
-8.75156e-05      7.32957      174.831 
8.79404e-05      7.06580      50.8574 
-8.77637e-05      9.15144     -16.3739 
4.44059e-05      6.57505     -120.932 
8.74417e-05      5.41349     -104.547 
-4.41019e-05      6.57814      13.3625 
-4.37405e-05      11.2445     -123.094 
4.36809e-05      9.94418     -46.2199 
8.62660e-05      9.32066      113.924 
-4.35953e-05      4.60528      70.4668 
4.35148e-05      10.8104      141.836 
-4.33159e-05      5.86867      143.873 
4.30763e-05      1.07906     -100.700 
-4.30650e-05      10.0498     -111.972 
-4.30382e-05      5.60064     -135.869 
4.30030e-05      8.03918     -99.0166 
4.28755e-05      5.14982     -29.5533 
4.28169e-05      9.25906      49.1177 
4.26762e-05      5.29888     -144.993 
-4.26620e-05      7.59168     -28.9946 
-4.25022e-05      4.59880      70.6958 
-4.25359e-05      10.2689     -114.018 
-4.24920e-05      7.01819      65.7725 
4.24429e-05      7.39799     -27.5371 
-0.000256036      12.1373      38.6449 
-0.000212412      10.0150      131.680 
-0.000371623      5.26843      58.6668 
-0.000325499      10.7411      60.1896 
-0.000247921      9.30863      12.1551 
-0.000376132      10.8352      136.195 
-0.000145774      6.41442      12.6088 
-0.000274753      11.7409      131.894 
9.87818e-05      8.35929      110.301 
-4.96682e-05      8.84051      89.6109 
-0.000427967      11.8658      128.705 
0.000287584      8.18974      147.669 
-0.000245926      8.08935      124.830 
-0.000170817      8.82025      89.6100 
-8.92710e-05      6.37993      12.8577 
0.000209496      4.87006      173.631 
0.000570090      11.2983     -129.327 
-0.000170795      10.0020      131.597 
0.000132219      8.03996     -42.5830 
0.000126134      7.39532      70.2394 
0.000253878      9.27810      49.5430 
-0.000435126      6.06026     -90.3760 
0.000235149      5.65233     -146.249 
4.62630e-05      8.39487     -42.3953 
0.000162290      1.95341     -132.509 
-0.000129471      12.0444      128.999 
4.56494e-05      9.40247     -146.718 
-0.000121724      7.20779     -20.2970 
8.90469e-05      8.36106      161.736 
-0.000352053      12.4456      125.912 
-8.75482e-05      8.15493      75.0750 
-0.000235790      8.41035      120.592 
8.44385e-05      8.36608      110.426 
0.000276193      7.47091     -59.2465 
-0.000123360      10.7280     -72.6474 
-0.000259594      5.17521      150.863 
0.000113500      13.0501     -47.3582 
-4.26741e-05      6.18357     -174.987 
0.000119548      9.38554     -146.650 
-0.000168305      9.28883      12.1814 
4.23763e-05      9.28081     -90.7412 
-7.98769e-05      10.1738      123.130 
-0.000157457      10.4243     -142.955 
-0.000639835      12.1221      38.7025 
0.000117352      8.38643      161.653 
-0.000298364      7.11081     -63.0753 
8.02253e-05      7.69152      70.7165 
-0.000111080      11.2885     -33.4355 
-0.000112215      12.9520     -140.263 
-0.000107950      10.2933     -143.932 
4.04568e-05      8.40803     -42.4935 
-0.000110951      8.17451      75.1116 
-0.000372121      10.8498      136.269 
7.88680e-05      7.87204      11.2799 
0.000185883      10.7918      141.621 
-0.000106584      6.18531     -174.807 
7.60783e-05      9.30083     -90.6148 
-0.000207808      10.3250      119.345 
-0.000282856      3.64347     -165.045 
-7.63074e-05      6.25608      31.4022 
-7.41272e-05      5.89796     -134.041 
3.87160e-05      8.96942      112.276 
-0.000130816      5.17077     -57.4746 
7.52532e-05      4.24139     -128.492 
-0.000282879      9.23200     -64.3222 
0.000332158      7.44367      159.228 
3.80798e-05      10.0297     -46.3732 
6.81909e-05      7.57677      25.8215 
0.000264136      9.55291     -147.309 
-7.17701e-05      11.9166     -55.3242 
-0.000103288      12.0723      129.016 
-3.74383e-05      2.67897     -124.051 
6.93381e-05      8.38507      110.378 
0.000140435      7.87603      11.4245 
3.69584e-05      11.0013      57.3202 
0.000149276      8.96176      112.156 
3.66688e-05      4.88238      178.124 
-3.60555e-05      10.4652      63.4349 
-8.83237e-05      9.78719     -84.3725 
-0.000423553      11.9055     -55.4015 
-0.000217165      10.7341     -72.5442 
9.96948e-05      9.26497      49.6383 
9.61491e-05      9.59305     -97.0678 
0.000130588      8.89332      62.1095 
-6.90396e-05      10.3959     -142.977 
3.51518e-05      10.7050     -121.166 
0.000244274      11.0183      57.3771 
-0.000111293      11.1445     -31.7220 
-3.49800e-05      6.44961      12.3546 
-0.000152154      8.21894      120.245 
3.48279e-05      9.68015      58.3454 
9.44333e-05      10.0437     -46.2896 
0.000200364      9.18063      110.132 
0.000236198      4.25403     -128.706 
0.000154631      10.8073     -117.800 
-0.000132089      12.3541      129.153 
0.000274208      3.21229      21.9331 
-0.000147619      9.97397      131.584 
0.000116987      8.36720      161.609 
-6.23640e-05      5.25114      58.5518 
-0.000124284      8.67554     -33.9100 
3.40288e-05      7.65443      68.0620 
3.39499e-05      8.87656     -143.983 
-0.000229584      13.9511     -46.8591 
-3.37390e-05      9.78920     -84.2544 
-9.56601e-05      10.4558      63.2897 
-0.000150488      9.34103     -66.3983 
-6.32051e-05      6.20915      73.7246 
-3.33910e-05      12.0268      130.683 
3.33068e-05      8.73192      60.5006 
0.000266361      4.29962     -32.6583 
-0.000199563      10.4081     -142.888 
-3.30108e-05      6.24593      31.2494 
0.000181324      10.8076      141.687 
0.000150832      11.6487     -129.566 
6.38995e-05      7.48090     -59.1181 
3.25857e-05      1.15398     -98.9784 
-0.000184651      8.06115      124.794 
9.34492e-05      3.98095     -131.538 
-0.000164946      5.14343     -57.5480 
-3.21171e-05      10.3523      121.571 
0.000222430      7.89589      11.3954 
-0.000110508      10.5972      130.486 
0.000329403      8.30231      39.1346 
0.000167826      9.18762      110.251 
-3.17763e-05      10.4465      119.854 
6.06779e-05      9.13237      60.9097 
-3.16352e-05      12.9364     -140.205 
0.000445695      8.64743     -146.127 
-3.13578e-05      8.19911      75.0162 
5.90788e-05      9.36862     -146.582 
3.11716e-05      9.43392      60.1211 
3.11974e-05      10.1021     -32.7150 
-6.02210e-05      11.1571      48.9979 
5.90086e-05      1.10196     -11.5089 
0.000220207      1.13810     -100.139 
-0.000106474      5.88389     -133.899 
-8.55103e-05      9.29909      17.2652 
3.06499e-05      7.64325      67.8643 
-3.05763e-05      11.8774     -55.4264 
-0.000278173      11.1722     -36.8499 
3.05169e-05      7.94807      155.627 
-3.03999e-05      10.4731      119.894 
-0.000576841      12.0270     -31.8129 
0.000282123      9.66450     -28.4216 
2.98902e-05      9.00763      48.0593 
-8.31226e-05      8.13608      75.0396 
-8.36798e-05      11.7695      131.901 
-0.000489160      13.1631     -137.340 
-0.000180568      12.3664      129.223 
-0.000100677      8.10955     -145.957 
-0.000692890      12.2870     -123.716 
-0.000104422      10.6099      130.566 
0.000160975      10.0857     -32.7749 
0.000203406      4.82123     -91.4270 
5.67949e-05      7.51849     -58.9293 
0.000101918      6.39075      20.1371 
0.000175461      5.55532     -8.06772 
-8.23125e-05      10.4832      119.990 
8.07124e-05      7.86290      27.4112 
0.000127171      3.21991      22.2676 
4.99305e-05      6.27030     -144.739 
-2.80983e-05     0.737659     -147.167 
0.000490750      9.02433     -175.804 
-9.96605e-05      10.3091     -143.996 
-7.89502e-05      12.0571      129.074 
-9.66003e-05      10.5223     -114.959 
-2.77937e-05      11.1404      48.7850 
-0.000245988      9.81374      38.8794 
-0.000102102      10.4739      63.3395 
0.000199759      9.23698      49.6557 
0.000288391      3.99442     -131.756 
5.36574e-05      13.1029     -48.2779 
-2.75170e-05      10.3244      121.534 
0.000141326      9.45149      60.1823 
7.35963e-05      3.40710      3.69992 
5.19029e-05      7.55640     -58.7503 
0.000376018      10.7951      141.772 
-2.69841e-05      8.50134     -32.1217 
0.000143995      11.0354      57.4338 
4.91857e-05      4.86894      111.186 
-0.000134869      9.02031     -70.4376 
-2.67523e-05      5.64652      104.775 
-9.60353e-05      10.4664      117.544 
2.66516e-05      8.87542      62.0483 
-0.000168534      4.45562     -170.960 
-2.64627e-05      10.8646      136.492 
9.26947e-05      9.91712      71.0537 
4.79304e-05      9.12152     -131.799 
7.25757e-05      10.4972     -164.191 
-2.61046e-05      11.1252      48.7163 
-5.12351e-05      5.45256     -24.0217 
0.000296570      11.7682      150.473 
-2.59062e-05      6.07977     -90.3748 
0.000256485      13.1159     -48.2143 
2.57213e-05      8.79306     -160.326 
-0.000166343      10.7527     -70.8911 
-6.81308e-05      10.2612      169.214 
7.22067e-05      9.52711     -14.0953 
-0.000232044      10.0571     -112.075 
-2.50892e-05      12.0400      130.757 
-2.50524e-05      11.1119      48.7948 
6.65002e-05      8.88458      61.9372 
-9.29611e-05      12.0095     -43.7190 
-2.48458e-05      6.18971      73.6720 
-4.83760e-05      10.8793      136.565 
-0.000106322      9.33294     -66.5123 
2.47129e-05      8.86510     -144.085 
-6.70354e-05      9.44755      134.311 
-8.36111e-05      4.04133     -15.2103 
-2.46465e-05      8.48419     -32.1945 
-4.72246e-05      13.4525      133.737 
-4.79096e-05      13.2591      139.220 
2.44098e-05      9.14224      60.7988 
-0.000127396      8.11651      75.0027 
8.90274e-05      7.75083      135.839 
-6.72437e-05      11.1436      47.8384 
0.000215084      7.84492      27.4793 
0.000290963      9.65074      79.8565 
-4.60704e-05      10.7402     -72.4411 
0.000163534      9.91760      97.1804 
-0.000310822      13.9377     -46.9177 
-4.58574e-05      9.98743      131.671 
-0.000257661      5.43406     -24.1087 
8.42683e-05      8.62453     -163.288 
0.000208061      12.9611     -46.8768 
4.23960e-05      9.51338     -169.708 
-2.34866e-05      10.3350      121.630 
-4.41538e-05      5.22446      154.613 
6.68653e-05      7.84256     -161.102 
-4.43144e-05      11.0966      48.7259 
0.000139271      4.32721     -32.7310 
0.000167153      11.2855     -129.247 
0.000173589      11.6900      121.570 
-0.000140668      12.1415      126.019 
0.000160696      7.91502      11.3675 
0.000116646      9.37582      48.1144 
-4.39329e-05      8.49460     -32.3058 
8.35090e-05      4.26986     -128.536 
2.27567e-05      9.59559     -60.1229 
-6.16865e-05      10.1382     -114.847 
6.39780e-05      8.95442      112.040 
-0.000220751      10.4649      63.1906 
-8.12999e-05      13.2459      139.287 
-0.000121493      4.43561     -170.919 
4.21071e-05      7.99836      64.8438 
0.000138882      9.53188     -14.2091 
-2.20207e-05      10.8940      136.638 
-4.02553e-05      5.15433     -57.3580 
0.000125963      10.8897      127.837 
-6.18656e-05      10.5726     -156.829 
-9.55422e-05      11.9954     -43.7834 
-9.71106e-05      9.27974      17.3023 
5.96842e-05      9.63235     -59.9755 
2.16796e-05      9.35235     -146.516 
-7.63756e-05      13.4385      133.674 
-2.16105e-05      11.1857      48.9876 
2.14623e-05      8.37361      161.477 
-6.19800e-05      8.22916      30.3670 
-0.000169331      1.42100     -177.579 
0.000162643      9.56996     -147.374 
0.000110009      8.22062    -0.836833 
-4.13808e-05      11.1343     -31.6366 
3.93157e-05      8.63232     -15.4521 
-0.000129485      5.86985     -134.031 
-0.000139259      13.9731      135.581 
2.10051e-05      11.8399      53.0350 
-3.76606e-05      10.4830      63.2405 
-9.16256e-05     0.732771     -145.008 
-2.09145e-05      11.0747     -154.546 
-0.000239296      4.04649     -15.4769 
-0.000179254      8.43772      120.636 
-5.81460e-05      2.26443      54.3453 
0.000130739      8.72316     -17.4810 
-0.000278396      10.4055     -75.1881 
-3.96714e-05      12.3765      129.428 
-7.61382e-05      10.5163     -142.652 
-5.45979e-05      6.37790      29.6989 
2.03629e-05      8.78129     -160.164 
0.000124146      10.0897      25.8561 
0.000167207      10.5160     -164.220 
-2.03481e-05      6.56222      135.496 
-0.000118262      9.28457      12.0592 
0.000109951      5.53526     -8.09715 
3.81024e-05      7.81755     -161.196 
2.02137e-05      7.63564      68.0052 
2.01935e-05      11.0293      57.2884 
2.01169e-05      7.08993      21.8600 
-5.57891e-05      13.0832      134.070 
7.56017e-05      12.0203      142.845 
-2.01165e-05      2.59889      50.3067 
-2.00876e-05      3.63830     -165.353 
-5.75658e-05      8.28072      137.446 
-5.52129e-05      10.0969      129.778 
5.54697e-05      9.46842      60.2410 
-5.42423e-05      11.0686      48.7381 
0.000123424      10.9467     -44.2585 
-1.96327e-05      2.49719     -121.909 
8.77330e-05      9.60827     -53.4630 
3.66547e-05      7.46262      159.283 
-1.95471e-05      12.3408      131.517 
-1.94874e-05      11.2855      129.247 
-3.56974e-05      5.44155     -56.5422 
1.94349e-05      9.20891      49.6666 
-6.80465e-05      12.0699      129.149 
5.58903e-05      10.9535     -21.0834 
-6.91004e-05      11.1422      47.6913 
1.93233e-05      9.62260     -60.0761 
1.93489e-05      11.0463      57.3452 
-9.13645e-05      7.89860      115.659 
-5.64830e-05      12.3256      131.579 
-3.68039e-05      10.4562      119.947 
-5.52211e-05      11.5279      49.1519 
-7.18225e-05      11.8659     -55.5070 
-1.89594e-05      2.85791     -122.138 
-0.000104654      9.48068     0.848059 
-6.71551e-05      10.3349      119.443 
3.70000e-05      9.37766     -130.414 
5.30704e-05      10.1077      69.3787 
-7.06526e-05      9.61366      132.219 
-0.000261550      7.28418     -136.002 
-0.000147855      8.21169      30.4385 
-7.58412e-05      9.81397     -120.221 
0.000164119      12.8591     -131.975 
1.85969e-05      10.6460      147.115 
3.57624e-05      11.7614      31.0145 
1.85247e-05      9.19966      110.089 
-1.84840e-05      9.66005      9.05477 
-8.68899e-05      11.1270     -31.1751 
-0.000276235      10.5647     -156.930 
-0.000273608      13.9586      135.523 
-3.53972e-05      2.48065     -122.147 
-3.46176e-05      5.42571     -38.2663 
1.82184e-05      11.5276      122.889 
1.81034e-05      8.97320      111.992 
-5.30670e-05      14.1013      44.1398 
0.000106662      8.03996     -47.4170 
1.79888e-05      9.34900      69.2012 
1.79862e-05      9.65148     -15.5036 
5.06263e-05      11.8724     -58.2910 
5.05933e-05      8.95090     -158.364 
1.78686e-05      9.64244     -51.8200 
0.000259766      9.20663      110.207 
-9.36052e-05      12.4575      125.987 
-6.58095e-05      4.43885     -170.660 
-6.72711e-05      13.0703      140.463 
1.78253e-05      9.16469      163.778 
-8.31776e-05      9.00668     -8.81330 
6.63791e-05      7.85429      27.6104 
-1.76695e-05      12.3122      131.509 
-7.40182e-05      8.29565      137.540 
-6.42200e-05      8.11129      75.1410 
-0.000157264      13.1726     -50.6056 
0.000246340      11.0398      57.2032 
-1.75111e-05      8.05003      124.680 
-1.74892e-05      9.76660      130.016 
-1.74428e-05      12.4351      130.041 
0.000231470      12.9750     -46.8115 
-0.000230115      11.5427      49.2153 
0.000483757      13.9097     -133.076 
8.51014e-05      11.5447      122.835 
-5.09248e-05      9.62058     -122.433 
3.33173e-05      6.58548     -121.084 
0.000182412      10.8230      141.752 
1.72599e-05      9.14596      163.743 
6.25492e-05      10.1906      83.2382 
-0.000185579      2.90025      53.1301 
7.95625e-05      13.2295     -46.7766 
3.33907e-05      6.47734      54.3011 
-6.43536e-05      9.79856      38.9510 
9.28795e-05      12.0042      142.786 
0.000105346      9.65433      79.7382 
6.29132e-05      9.55578     -14.2981 
-1.68941e-05      12.2970      131.571 
-4.39680e-05      9.68006      9.03589 
-7.86124e-05      7.90707      115.787 
3.21102e-05      9.39081     -130.508 
6.49889e-05      10.9077     -149.109 
1.67692e-05      9.68981     -15.4407 
-1.67535e-05      10.7915      135.828 
1.67067e-05      10.1712      83.2252 
6.17205e-05      4.28204     -128.740 
8.94078e-05      11.8282      53.1105 
-0.000177526      14.0873      44.1950 
1.66178e-05      8.00699      64.7126 
4.80003e-05      11.7440      31.0655 
3.27831e-05      12.3609      138.936 
0.000194140      6.88265      111.120 
-0.000108277      8.21089     -63.0626 
1.65534e-05      9.34209      69.3131 
-0.000123504      12.1099      38.6304 
0.000106801      8.74177     -17.4426 
-4.77699e-05      9.76913      129.849 
-0.000135734      10.8012      38.6088 
-1.64619e-05      12.4481      130.112 
9.09737e-05      10.6153      16.0789 
8.94126e-05      8.28719      39.2197 
-7.37904e-05      10.3636      147.291 
-3.19695e-05      9.98196      116.411 
-4.61921e-05      9.10417      6.81164 
-1.63390e-05      2.84718     -121.792 
1.62842e-05      11.0400      119.166 
-1.62522e-05      10.0403     -179.773 
-0.000262853      9.61438     -122.600 
4.77015e-05      9.66863      49.0249 
3.16263e-05      11.5171      122.808 
-0.000120280      11.1097     -31.2292 
-1.61270e-05      12.1252      126.076 
-0.000115287      6.54246     -4.73690 
-6.20422e-05      9.41096      100.284 
1.60807e-05      9.70934     -15.4089 
-7.74369e-05      12.2841      131.503 
1.60383e-05      8.61590      122.581 
-0.000118785      9.53383      136.193 
-0.000188430      10.7336     -70.8557 
1.58580e-05      11.8237      52.9759 
0.000330477      13.5030      42.5992 
1.58524e-05      9.92016      97.2965 
-0.000133589      9.50066     0.724079 
-3.09925e-05      10.1098      129.866 
-0.000102258      9.65278     -112.155 
-0.000120477      8.66395     -98.8986 
-0.000115277      13.7050      135.887 
7.42921e-05      7.98977      25.0247 
0.000116765      9.83721     -55.0176 
7.36264e-05      12.3329      138.947 
1.56769e-05      5.51052     -50.2983 
1.56743e-05      10.9463      122.617 
4.55433e-05      9.01426      120.833 
-1.55284e-05      10.5138     -114.859 
0.000118159      10.9316      117.457 
1.55371e-05      9.71308     -171.237 
0.000158061      9.83513     -15.4518 
0.000336002      8.63298      122.509 
-2.74613e-05      7.01943     -68.2589 
-3.02549e-05      9.03036     -87.2089 
1.53452e-05      7.89992      11.5394 
0.000100976      10.0570     -11.3560 
0.000104719      11.8120      53.0515 
1.52883e-05      5.51520     -8.12679 
-0.000331538      10.9523     -29.4225 
0.000100406      9.68394      49.1035 
-8.56768e-05      13.0418      140.475 
0.000206277      8.20183      63.8100 
-4.31030e-05      13.4245      133.612 
5.73055e-05      10.8903     -149.054 
1.51377e-05      6.46090      54.1962 
-1.50778e-05      10.5902     -106.004 
1.50257e-05      13.9919     -43.4354 
-0.000127412      12.0542      129.210 
-9.94077e-05      8.64467     -98.9186 
-8.56133e-05      11.8326      37.2376 
2.95309e-05      8.17780     -51.9503 
1.49747e-05      9.92275      97.4125 
0.000163106      11.1643      121.298 
-4.32903e-05      11.9955     -43.6490 
-0.000112567      10.5848     -105.902 
8.57497e-05      13.1294     -48.1484 
-0.000112476      10.3657      161.671 
7.08584e-05      14.0059     -43.4956 
7.09883e-05      11.2965      153.615 
5.15678e-05      4.82178     -91.6676 
4.29041e-05      10.2217      98.0986 
-1.46805e-05      10.7040     -143.280 
1.46817e-05      10.1706      16.3304 
8.42111e-05      14.0061      46.6195 
-5.68053e-05      9.40737      100.163 
4.24785e-05      3.68521      152.877 
-8.36472e-05      10.5617     -20.3907 
5.58658e-05      9.00806     -37.1525 
1.45393e-05      10.0809      25.7525 
-9.83694e-05      13.1780     -137.400 
4.17525e-05      10.4245      14.3283 
-1.44993e-05      9.91764     -100.220 
-1.44370e-05      10.0139      131.841 
6.95325e-05      11.2727     -129.167 
-4.23633e-05      12.2695      131.564 
4.20237e-05      8.99687      120.899 
-2.78250e-05      7.39045      16.6686 
-6.94883e-05      13.9584      135.405 
2.82549e-05      12.8455     -131.908 
-0.000160364      11.3608     -58.2405 
-4.15979e-05      7.91591      115.919 
-1.42148e-05      7.82660     -116.894 
2.77040e-05      10.1893      16.2995 
-6.26996e-05      1.40151     -177.545 
-5.54712e-05      7.25605     -136.001 
-2.79598e-05      9.54688      131.776 
1.41275e-05      12.3476      139.007 
5.49860e-05      8.73572     -17.3159 
-1.41270e-05      11.3329     -33.4102 
-1.41347e-05      9.78282      39.0256 
-0.000116889      9.99099      116.515 
-1.41160e-05      8.79833     -58.4789 
5.51224e-05      10.4452      102.944 
-2.77103e-05      9.03137     -87.0805 
2.78245e-05      8.18058      90.6990 
-1.40693e-05      9.59187      32.8298 
-0.000164724      11.3446      29.2320 
-2.76986e-05      10.3078      121.591 
-1.39932e-05      13.9442      135.464 
-2.59698e-05      5.20843     -53.7426 
2.76565e-05      9.58043      14.3856 
1.39563e-05      11.1854      121.475 
1.39447e-05      9.92529      97.5242 
-4.14012e-05      11.8745     -42.7464 
-4.11389e-05      12.5439     -53.1685 
5.44917e-05      10.9223      117.363 
0.000127179      8.16245     -51.8658 
-1.38824e-05      10.4017      130.242 
-1.38461e-05      9.60890      32.7643 
4.08988e-05      10.0344     -23.2425 
-2.73343e-05      9.91419     -100.109 
1.38193e-05      10.9051      127.774 
-2.73848e-05      12.4603     -37.2370 
2.72644e-05      13.2282     -46.6550 
-2.73073e-05      9.68617      54.2425 
1.38498e-05      3.70326      153.020 
-2.72958e-05      9.26549      12.0844 
-4.07517e-05      9.79182      34.6010 
1.37189e-05      9.81706      65.3136 
1.36935e-05      12.8304     -131.968 
-1.36997e-05      10.9803     -48.4686 
1.36749e-05      9.62455     -53.5348 
1.36850e-05      7.52256     -30.5197 
2.71936e-05      11.3055      153.523 
1.36908e-05      10.6014      16.2145 
-1.36570e-05      9.10667      40.5455 
-2.71443e-05      13.9239     -46.9785 
1.36461e-05      4.23635     -37.5154 
-2.71294e-05      12.2455     -132.420 
-2.70364e-05      4.86390      10.6598 
2.69964e-05      8.82024      86.0974 
-1.35758e-05      13.7191      135.827 
1.35354e-05      12.5070     -46.6848 
-1.35161e-05      12.2560      131.493 
1.34921e-05      12.5356     -133.319 
1.34892e-05      8.07982      37.1530 
-1.34578e-05      8.96682     -2.17256 
-1.33944e-05      11.4301      35.0235 
-0.000181536      12.6905      128.730 
-9.69726e-05      12.2701     -132.819 
-9.62403e-05      12.3461     -125.106 
-5.52071e-05      9.99184      38.4992 
-0.000183280      9.50699      131.506 
8.06262e-05      12.2224     -54.2558 
-6.53014e-05      10.5852     -58.4407 
-2.76155e-05      11.0138      48.9033 
0.000228327      9.01958      159.355 
4.15353e-05      6.21683     -52.3209 
3.95068e-05      10.0634      25.8008 
-4.99808e-05      10.7712      47.3348 
7.85627e-05      12.1164      34.7127 
9.04435e-05      11.4996     -136.055 
-6.33356e-05      8.81497     -58.5452 
-9.10615e-05      10.2071     -87.8681 
7.79308e-05      10.1260      69.4176 
-0.000114391      9.91792     -114.290 
-5.09555e-05      12.4680     -36.9809 
-9.10418e-05      9.70007      9.01710 
0.000165458      8.06808     -47.4123 
-5.36906e-05      10.7849      47.2557 
-5.22237e-05      4.86033      10.4338 
-0.000128568      10.5945      130.637 
-0.000164313      10.2454      148.981 
5.22977e-05      6.74319      83.5274 
1.36780e-05      10.9047      117.646 
1.36017e-05      11.7175      121.599 
-0.000125033      7.95646     -70.9260 
5.13462e-05      10.9464     -44.4084 
1.35098e-05      7.54284     -30.7800 
-2.55962e-05      12.2182     -132.279 
-1.33709e-05      3.47134      41.4947 
-0.000122971      9.65278      22.1546 
-6.32120e-05      12.3295     -125.160 
-3.84469e-05      7.03825     -68.3200 
0.000111297      3.69411      153.300 
9.80468e-05      10.8957      117.555 
2.57126e-05      8.04270      29.4949 
-8.74102e-05      10.3472      161.637 
-3.79410e-05      9.26096     -7.57071 
3.79769e-05      4.00744     -131.964 
1.31177e-05      9.03784      159.398 
-2.55938e-05      9.71489      34.7690 
2.55383e-05      9.82704      65.4702 
-6.23121e-05      10.0308     -122.707 
-1.29408e-05      11.0464     -62.9702 
9.97484e-05      7.53249     -30.6476 
7.36420e-05      10.9496     -120.032 
1.28342e-05      12.1330      34.6582 
-3.65531e-05      9.62531     -122.701 
-1.27222e-05      1.10635     -139.373 
-1.27326e-05      8.09694      74.9656 
2.48182e-05      11.9417     -57.9328 
-1.26081e-05      8.65944      73.9114 
2.46632e-05      9.60005      14.3556 
9.91179e-05      10.2272      147.863 
-3.67791e-05      10.7700      47.1825 
1.24709e-05      6.24465     -52.2832 
-1.24824e-05      11.2722      129.961 
3.67109e-05      13.8595      45.2325 
-2.45486e-05      6.33369      29.7238 
-1.24035e-05      8.96073    -0.513398 
2.46030e-05      5.52612     -50.4325 
-2.44068e-05      10.6213      134.619 
-5.02049e-05      12.2568     -132.752 
1.23617e-05      6.86125      110.653 
0.000100178      7.98298      155.427 
-2.41099e-05      10.3947      152.497 
1.23106e-05      11.0568      57.2601 
1.22791e-05      8.41813     -27.5975 
-4.78019e-05      10.5746     -58.5342 
9.82008e-05      11.8694     -38.5704 
5.06302e-05      7.07847      77.0996 
-1.21372e-05      9.18164     -16.5822 
-0.000107804      11.1863     -135.217 
2.39273e-05      9.82554      65.2062 
-1.20905e-05      10.7821     -61.7727 
-2.43312e-05      9.82419     -120.324 
-1.20650e-05      9.84372     -70.1658 
1.20050e-05      10.9136      117.506 
1.20030e-05      8.03603      24.7176 
2.36294e-05      11.1784      31.0159 
1.19974e-05      11.5557      122.919 
1.19781e-05      12.1221      49.0813 
-3.58672e-05      6.22211      30.5205 
8.46259e-05      10.5235      141.715 
-1.19468e-05      9.77515      34.6684 
0.000138057      9.69197     -28.4699 
-0.000138680      12.4842     -36.9250 
7.33660e-05      11.4603     -56.8926 
-0.000109257      12.8771      139.284 
9.81270e-05      12.5144     -40.3330 
-1.25704e-05      11.8897     -127.757 
-6.14061e-05      9.67005      34.8074 
9.83265e-05      6.72529      83.3428 
-0.000121616      11.8507     -34.8966 
-9.61723e-05      10.3596      161.774 
4.89304e-05      9.57579      71.1121 
-6.07650e-05      11.2597      129.885 
-6.05049e-05      11.0463     -57.3452 
-8.59020e-05      12.2690     -132.953 
4.82580e-05      9.79950     -79.6555 
-4.87482e-05      10.5818      130.557 
2.44170e-05      6.36141     -178.919 
4.83971e-05      12.1354      49.0090 
-3.58197e-05      8.94047    -0.514561 
-3.60216e-05      10.3410      161.740 
-3.61889e-05      6.16392     -64.4332 
-3.61422e-05      12.2318     -132.350 
-4.81340e-05      9.12207      40.4628 
5.01982e-05      12.7931      142.430 
2.43219e-05      12.0997      34.7673 
-2.40991e-05      11.9845     -133.176 
1.21667e-05      10.5207      107.025 
-1.20711e-05      11.8773     -127.680 
-1.20988e-05      9.35848     -55.8003 
2.40013e-05      6.85413      110.494 
4.78045e-05      8.33292      36.0175 
3.57544e-05      10.8276     -49.7196 
1.20261e-05      4.68673      158.471 
-2.38940e-05      4.88026      10.3907 
4.72078e-05      8.40018     -27.6615 
-2.38628e-05      7.46025     -117.457 
2.44013e-05      8.93810      172.411 
-1.22752e-05      11.6391      139.880 
3.65210e-05      11.8260      33.6901 
-3.60850e-05      10.4148      130.327 
4.80474e-05      4.66858      158.383 
3.58579e-05      9.83547      65.3629 
1.20224e-05      10.1622      83.6706 
-3.53220e-05      8.71647     -54.9979 
-2.37060e-05      6.91558      31.7602 
-2.37543e-05      10.2413      72.7334 
-2.36584e-05      10.5864     -74.8881 
-2.36776e-05      14.3114      135.000 
-2.37037e-05      9.82537     -70.1272 
1.18130e-05      8.88010      174.574 
-1.22532e-05      7.85350     -116.954 
1.21865e-05      8.34932      35.9358 
-2.39212e-05      9.65404      34.8734 
2.40667e-05      9.59795     -147.337 
-1.19900e-05      11.6236      139.816 
-2.37282e-05      8.64772     -99.0463 
-2.37735e-05      6.13691     -64.5222 
-1.18814e-05      12.1018     -125.923 
3.58555e-05      11.8152      33.6113 
2.39337e-05      12.2501     -54.2322 
1.18156e-05      6.65371      164.128 
-1.18339e-05      7.46950      19.0684 
1.17972e-05      9.62348      69.9444 
1.17540e-05      9.59918      167.728 
-1.17679e-05      8.07810      74.9297 
1.21883e-05      4.49394      157.778 
-1.20115e-05      11.2467      129.806 
-1.20262e-05      10.2474      72.6252 
-1.19880e-05     0.744131     -143.777 
1.19924e-05      7.05945      77.0643 
1.19168e-05      9.61655      70.0578 
-1.19165e-05      7.46896     -158.314 
-1.18921e-05      9.26147     -137.979 
1.18026e-05      5.75842     -163.450 
-1.17363e-05      10.6352      134.545 
-1.17391e-05      11.6105      139.892 
1.16929e-05      8.89952      174.586 
1.16668e-05      4.47520      157.679 
-1.16606e-05      7.27064     -136.112 
! Tentative model.
! Flux (Jy) Radius (mas)  Theta (deg)  Major FWHM (mas)  Axial ratio   Phi (deg) T \
! Freq (Hz)     SpecIndex
-1.26011e-05      9.99076      116.514 
