! Center RA: 12 21 31.69052,  Dec: +28 13 58.50022 (2000.0)
! Established model.
! Flux (Jy) Radius (mas)  Theta (deg)  Major FWHM (mas)  Axial ratio   Phi (deg) T \
! Freq (Hz)     SpecIndex
  0.104113    0.0202604      0.00000 
 0.0564779    0.0397705      0.00000 
 0.0292130    0.0446338     -26.9958 
0.00848265    0.0848966      45.0000 
0.00469697    0.0286526     -45.0000 
0.00174897     0.100252      53.2159 
0.00284463     0.113549      45.0000 
0.000939234     0.128090      51.1829 
0.000932608     0.262662      98.7088 
 0.0166975     0.116465      58.9729 
0.00336465     0.260423      94.4620 
0.00870788     0.259634      90.0000 
 0.0166849     0.134233      63.4349 
0.00101613     0.144435      56.2274 
0.00546726     0.260423      85.5380 
0.00860406    0.0720098     -33.5245 
0.00363497     0.280627      85.8598 
0.00628330     0.107434      68.2729 
0.00392270     0.282706      81.9129 
0.00412412    0.0562440     -45.0000 
0.00148082     0.360755      93.2195 
0.000475179     0.262662      81.2912 
0.00232611     0.100252     -36.7841 
0.000477395     0.266484      76.9812 
0.00411333     0.380236      93.0544 
0.000671330     0.240977      94.8229 
0.00478930    0.0848966     -45.0000 
0.000775140     0.220795      95.2649 
0.00395326     0.223431      100.253 
0.000409804     0.253192      71.5114 
0.000382130     0.260038      67.4310 
0.00100090     0.268467      63.4349 
0.000694976     0.379696      90.0000 
0.000481007    0.0446338      153.004 
0.000167306     0.400469      92.8999 
0.00363972     0.399956      90.0000 
0.000872451     0.128090     -38.8171 
0.00163338     0.247514      104.036 
0.000571657     0.278118      59.6991 
0.000828356    0.0633577      161.350 
0.000139218     0.227911      105.272 
0.00160647     0.113549     -45.0000 
0.000383460     0.271820      53.9843 
0.000360829    0.0828082      165.838 
0.000122083    0.0600310      180.000 
0.000326731     0.288454      56.3513 
0.000774136     0.253192      108.489 
0.000555623     0.284207      50.6787 
0.00119056     0.420217      90.0000 
0.000334221    0.0802914      180.000 
0.000524588     0.156126     -39.7351 
0.000108097     0.612198      101.310 
0.000824266     0.101837      168.524 
0.00168471     0.184676      40.5508 
0.000724734     0.635505      102.756 
0.000207935    0.0998015      180.000 
0.000100789     0.121759      170.422 
9.97948e-05     0.101837      78.5245 
0.00287741    0.0633577     -71.3505 
0.00358402    0.0397705     -90.0000 
0.000291378     0.243395      99.4042 
0.000608663     0.404436      81.4640 
0.000684975     0.588572      99.7625 
0.00189871     0.384412      81.0157 
0.00239663     0.585580      97.8809 
0.000418824    0.0720098     -56.4755 
0.00201943     0.608549      99.4391 
0.000586118     0.172194      35.4216 
0.00175312     0.156126      39.7351 
8.70124e-05     0.313099      63.3735 
8.29789e-05     0.315980      55.2532 
0.00124180     0.401929      84.3213 
0.000441130     0.312731      50.1592 
7.85615e-05     0.381773      84.0205 
0.000282301     0.627803      99.1471 
0.00255936     0.972963      99.4551 
0.000134402     0.100252     -53.2159 
0.000266218     0.742542      104.036 
0.000129361     0.310934      45.0000 
0.000129380     0.240790     -41.5891 
0.000188859     0.766529      105.152 
0.000531584     0.269397     -41.9516 
0.000604111     0.325575      42.4780 
0.000625030     0.761484      103.680 
0.000674665     0.898473      110.842 
0.000374419     0.215843      111.838 
0.000270349     0.126477      161.673 
0.00146144     0.283342     -45.0000 
0.000299530     0.161670      29.7779 
0.000504222     0.969949      98.3182 
0.000712696      2.32906      110.619 
0.000580687     0.145849      164.176 
0.000344573     0.924690      111.568 
0.000958052      3.89039      109.833 
4.82078e-05      2.02164      92.2762 
0.000186946      2.02093      91.7022 
4.74507e-05      2.24752      106.008 
0.000450146     0.223834      116.479 
0.000175167      2.26628      105.872 
0.000222106     0.178866      26.6725 
0.000887834     0.340220      40.2586 
0.000573828     0.932329      112.726 
0.000177961      1.96130      106.584 
4.52675e-05      2.17796      103.265 
0.000917211      2.00018      91.1393 
0.000120625     0.422095      84.5935 
0.00168549      8.87898      110.434 
0.000999711      1.18985      114.836 
8.17706e-05      2.26102      105.397 
0.000279832      2.36967      111.805 
0.000430104      1.93708      106.195 
0.00111925      3.26577      118.131 
8.16916e-05      2.15897      103.384 
0.000157286     0.197181      24.0289 
3.89564e-05      2.27023      104.275 
0.000198013      7.00407      110.037 
7.61703e-05      2.16375      103.906 
0.000320021      7.01104      110.192 
0.000145353      2.27975      103.185 
0.000214437      2.40274      112.513 
0.000319785      2.27521      102.689 
3.67751e-05     0.170734      159.414 
0.000276591      2.14409      104.036 
0.000129751     0.215843      21.8384 
7.03698e-05      2.43969      100.384 
0.000562883     0.189835      161.565 
0.00148895      2.76870      98.3058 
0.00104139      2.10365      118.997 
0.000225985     0.940038      113.823 
0.000863870      6.80528      108.862 
0.000292910      2.94360      117.956 
0.000328716     0.310934     -45.0000 
0.000995943      2.29498      102.578 
0.000302216      2.14909      104.560 
8.81032e-05      2.43686      113.194 
0.000816385      6.58992      108.214 
0.000190683     0.233573      120.932 
0.000943203      1.39737      99.0526 
6.02585e-05     0.756949      102.190 
8.83574e-05     0.958607      113.334 
0.000459724      6.81359      102.201 
0.000810935      1.99988      90.5805 
0.000346844      5.45517      119.665 
0.000815976      5.46522      119.849 
0.000113643      1.94261      106.748 
0.000430023      4.17358      100.766 
0.000309932     0.966811      114.437 
2.87685e-05      2.45621      99.8508 
0.000566213      5.61009      115.105 
0.000712592      6.33446      101.840 
8.39351e-05      3.25662      117.829 
0.000359432     0.234065      20.0616 
5.55690e-05     0.776764      101.874 
0.000514178      9.56776      127.015 
0.000632327      2.12949      104.697 
5.41436e-05      3.19769      102.647 
0.00148611      2.92908      146.420 
0.000536841      1.19850      115.715 
0.000415053      7.03635      110.292 
2.73316e-05      3.88357      109.552 
0.000213934      2.45283      99.3845 
2.71111e-05      3.24721      117.512 
0.000628700      6.18551      114.245 
7.73016e-05      3.21181      115.446 
0.000475983      1.96718      107.149 
7.70969e-05     0.772985      100.459 
5.25234e-05      3.21992      116.565 
0.000168276      3.56655      102.627 
0.000566442      1.17217      115.236 
4.95060e-05      2.28954      107.805 
0.000279791      2.95315      118.304 
0.000828861      6.62739      102.902 
0.000444524      3.21091      116.242 
0.000168348      5.29203      113.854 
0.000158376     0.297458     -47.6583 
0.000262918      3.59005      102.874 
4.78373e-05     0.933756      99.8559 
0.00101394      9.55558      126.918 
0.000249979     0.209153      163.320 
4.68295e-05     0.792179      100.203 
0.000202681      6.49050      99.5767 
0.000371647      6.81790      102.367 
6.35398e-05      2.28343      107.321 
0.000429702      5.82243      116.301 
0.000308403     0.788842      98.7544 
0.000105328     0.975367      115.520 
0.000425110      5.30026      114.054 
4.29047e-05     0.937436      101.076 
0.000327031      4.17742      101.039 
0.000361835      5.16254      121.532 
0.000170097      2.12444      104.169 
0.000290809      2.96245      118.636 
9.88073e-05      2.44960      98.9170 
0.000400736     0.312731     -50.1592 
9.02346e-05     0.983930      116.546 
8.33230e-05     0.917561      101.319 
0.000470940      9.28584      125.710 
1.90511e-05      2.08596      119.267 
3.66772e-05      4.19730      100.987 
8.58143e-05      3.20233      115.929 
0.000248698      2.09593      119.750 
0.000266992      6.60917      108.159 
0.000139790      1.99256      107.534 
8.88790e-05      4.32611      108.602 
5.37895e-05      2.34952      120.710 
0.000237573      3.35069      124.544 
6.58065e-05      2.29135      106.221 
3.53763e-05      3.20316      115.118 
4.68243e-05      3.56234      102.321 
0.000485494      4.47142      124.615 
0.000351465      3.58560      102.559 
0.000154627      6.21254      107.032 
0.000181209      6.48729      99.4068 
9.67688e-05      2.33962      120.299 
0.000123412      3.21264      114.655 
0.000357814      5.80495      116.386 
6.47931e-05      4.35179      108.769 
0.000104528     0.227911      164.728 
0.000107940     0.808873      98.5360 
0.000225424      2.88413      146.310 
0.000219264      4.20121      101.258 
7.66671e-05     0.993150      117.591 
0.000190956      1.42066      99.7310 
0.000103452      6.94825      105.356 
8.69158e-05      2.97221      118.979 
0.000175247      1.98655      106.977 
0.000116568      6.33049      101.667 
0.000244945      5.17316      121.723 
0.000206893      3.33924      124.258 
3.11616e-05      2.76237      145.615 
0.000101932      4.34532      108.516 
0.000212614      2.74629      145.385 
0.000141454      1.99978      90.0000 
8.42186e-05     0.786014      97.2946 
1.48797e-05     0.355922      38.1504 
1.47970e-05      2.11056      117.048 
0.000152213      9.27403      125.609 
0.000110365      2.11990      116.329 
9.67654e-05      6.82210      102.527 
6.82319e-05      1.00269      118.617 
9.50681e-05      5.63108      112.560 
2.75250e-05      7.06213      110.384 
1.39512e-05      5.60152      114.917 
9.39442e-05      3.35600      124.063 
2.70951e-05      2.10606      120.229 
2.67839e-05      3.20425      114.326 
2.68493e-05      4.37027      108.687 
2.68628e-05      6.20685      106.860 
1.31186e-05      4.36382      108.435 
0.00150241      4.10241      66.4312 
0.00101094      9.85017      25.3684 
0.000300456      9.86781      25.3199 
-0.00134066      8.77567      33.9428 
-0.000377265      8.68861     -36.1049 
0.000703054      4.22251      1.90440 
-0.00125674      11.2530      144.839 
-0.000441038      8.99251     -37.2275 
0.000892144      8.94876      149.364 
-0.000436968      12.3597      145.615 
0.000421995      10.0067      34.1655 
-0.000410959      4.81780     -167.286 
0.000176682      9.48917      73.9700 
-0.000177227      9.53445      43.6415 
0.00112710      9.49458      73.8568 
0.000339030      6.26551      44.6118 
0.000338054      12.0205      148.054 
0.000715129      5.51985      180.000 
-0.000770899      9.67416      151.473 
-0.000982646      11.0728      128.545 
-0.000455255      8.70498     -36.0263 
-0.000600196      9.52034      43.7226 
0.000314279      2.05200      77.0462 
0.000741556      9.19564      77.5640 
-0.00103024      11.1829     -25.4199 
0.000151175      4.20226      1.91358 
0.000300644      7.44521      15.9049 
-0.000301411      10.7467      150.575 
-0.000591979      11.0842      119.154 
0.000446645      10.8515     -38.9401 
0.000376645      11.0965     -114.716 
0.000151018      3.98137     -154.729 
-0.000579320      12.5293      47.6506 
-0.000440216      5.43759      96.7602 
0.000514017      5.53424      108.106 
0.000368995      3.22943     -54.8291 
-7.95365e-05      9.29886      155.474 
-0.000155648      5.74465     -37.7890 
0.000599976      7.81213      55.0093 
-0.000359284      10.8663      121.142 
0.000576190      10.2885      52.6612 
0.000151414      6.25130      44.4796 
-7.75605e-05      5.75709     -37.9483 
-7.72035e-05      12.3483      145.693 
0.000433827      11.2147     -151.331 
-0.000431695      10.0801    -0.341220 
0.000144304      11.3798     -143.432 
-0.000145507      10.3712     -122.156 
-0.000284523      9.28111      155.424 
0.000353655      11.5597      146.145 
0.000283057      9.66408      52.8196 
7.56102e-05      12.0481      148.026 
7.54148e-05      8.96619      149.430 
-0.000281277      9.03425      16.9901 
-0.000355213      8.49627     -121.032 
-0.000221703      11.0941      119.245 
0.000211503      2.03767      76.3680 
-0.000280269      10.4200      74.0710 
-0.000218536      5.77308     -37.8247 
7.43854e-05      3.69208     -43.9048 
-7.38411e-05      12.8603     -46.5746 
-0.000213715      3.40290     -92.3633 
0.000211852      5.75729     -139.223 
0.000212348      5.75123     -63.3480 
0.000278783      13.2327      49.3532 
-0.000275767      7.17027      171.981 
0.000205553      10.1080      34.5997 
-0.000138549      12.8464     -46.6402 
-0.000137825      13.5598      48.5289 
-0.000136979      4.91534     -124.721 
0.000202915      8.34841      166.565 
0.000137680      9.31273     -175.198 
-0.000205647      5.76068     -37.6655 
0.000136463      5.91524     -175.926 
-0.000201809      10.8767      155.790 
6.90041e-05      9.31457      68.0597 
6.88780e-05      10.0824     -105.413 
0.000133949      4.51493      137.330 
6.82339e-05      9.80470      117.716 
-0.000134372      8.75887      34.0168 
-6.78463e-05      11.2643      144.758 
0.000133282      7.01475      76.4766 
-6.74613e-05      10.8750     -113.406 
6.74767e-05      9.25009      100.337 
-6.70600e-05      3.42314     -92.3493 
6.68598e-05      6.92901      96.7979 
-6.67315e-05      10.7567      150.481 
-6.63801e-05      3.49299     -135.235 
6.62510e-05      11.1976     -151.283 
6.62178e-05      9.21000     -175.392 
-6.61315e-05      10.9941     -157.541 
-6.61284e-05      9.25226      33.4478 
6.61843e-05      5.74251     -63.5220 
6.58767e-05      3.20482     -51.8367 
-6.55981e-05      7.57267      104.842 
6.55692e-05      6.26524      44.3546 
-6.55446e-05      9.26369     -33.1069 
0.000258145      1.51650     -131.269 
-0.000895131      9.97676     -176.667 
0.000619507      1.51863     -130.190 
-8.73436e-05      4.33410      11.9811 
-0.000393100      10.0256     -4.12045 
-0.000504851      6.02783     -92.8542 
0.000247517      5.67958     -63.8818 
-0.000160086      4.31502      12.0349 
-8.09907e-05      4.15295      9.14916 
-7.77510e-05      4.17295      9.10493 
0.000572323      5.68820     -63.7054 
0.000341470      7.83594      152.647 
0.000583741      8.39010     -150.746 
-0.000337461      6.04411     -20.5319 
-0.000429042      11.3897      52.2045 
-0.000551333      9.58808      18.3612 
0.000518553      7.88034      53.5655 
-0.000330374      4.58937      131.819 
0.000143532      8.39957      6.83932 
-7.27198e-05      10.8151     -71.2281 
-0.000141562      12.2176      49.7132 
7.26143e-05      9.51638      3.37230 
-0.000381626      9.34370      10.7333 
-7.11734e-05      8.89257      18.3509 
-7.04981e-05      4.33009      11.7286 
0.000596129      9.53548      3.24811 
-0.000261703      10.0409      37.5550 
-0.000193558      8.91109      18.3114 
-0.000130412      6.13718     -23.2234 
0.000516901      7.97127      6.48076 
-0.000130230      10.8214     -71.1303 
0.000189844      7.81956      25.1215 
-0.000189210      12.1069     -45.8011 
-6.60920e-05      4.17943      9.64328 
-0.000294643      12.2307      49.6408 
0.000122713      8.43743      6.66995 
6.43421e-05      11.9360     -135.135 
-0.000172666      10.0061     -4.12848 
-0.000603040      13.4535      131.989 
-0.000235241      5.02885      158.538 
-6.28120e-05      4.18628      10.1799 
0.000121326      11.9365     -135.000 
0.000660208      7.26664      14.3433 
-0.000114350      5.74377      143.211 
-6.10274e-05      5.61501     -45.4331 
0.000117694      8.72975     -153.025 
-0.000381421      9.20237      1.36904 
-0.000221844      4.20909      10.4044 
0.000106282      7.95114      6.49724 
-0.000165672      10.0248      37.6256 
0.000209892      9.71713     -45.9167 
-0.000163548      4.61535     -116.236 
0.000156879      9.79456     -106.733 
5.75379e-05      9.28328      128.350 
0.000164873      7.84492      152.521 
-0.000110078      6.65094     -16.4169 
0.000374055      11.9221     -135.069 
-5.67766e-05      9.07229      16.9167 
0.000340139      4.64314      92.2229 
5.65439e-05      7.31284      46.2182 
-5.64149e-05      6.11058     -23.1238 
-0.000375542      12.1350     -45.8017 
-5.63567e-05      5.64260     -45.4310 
0.000107163      6.03074      15.1913 
-0.000389448      3.31778      166.049 
-0.000310126      9.60731      18.3232 
-5.57343e-05      5.93713     -96.3858 
0.000350457      9.25483      128.330 
0.000148100      8.74781     -153.085 
-0.000142476      5.32712      79.6208 
-0.000338110      12.9024     -46.5082 
0.000390283      9.80042     -106.846 
0.000142516      8.33185     -148.449 
-0.000105598      11.4947     -141.217 
-0.000153134      10.8279     -71.0289 
0.000542907      8.37243     -150.678 
0.000200629      10.7012      151.900 
-5.30767e-05      13.0614      131.646 
-0.000101464      4.57588      131.630 
0.000102604      1.53178     -130.769 
0.000147691      7.29936      46.3287 
-0.000363556      11.0326      134.118 
-0.000264470      8.97387     -104.192 
-5.13970e-05      5.93933     -96.5728 
0.000246111      8.54546     -43.2921 
-0.000224537      13.0485      131.582 
-0.000243197      9.62583      18.2866 
-0.000440369      8.13680      58.2623 
-0.000467286      9.99699     -176.674 
-0.000292754      5.04701      158.619 
5.03856e-05      8.32166     -148.563 
8.61241e-05      6.52568      84.9004 
-0.000262952      12.2851      49.4887 
-9.84984e-05      10.9380      139.524 
-0.000257962      11.5099     -141.278 
9.85449e-05      8.17025     -94.9157 
-0.000526002      10.9129     -52.5210 
-0.000231705      13.1315      140.002 
0.000407724      10.4982      13.2138 
-9.55459e-05      9.06645     -84.1762 
4.87304e-05      6.76169     -178.811 
-4.86998e-05      5.83262     -23.2238 
-0.000138944      13.4292     -136.993 
-9.43033e-05      6.20050     -89.0777 
0.000215200      12.5866      134.742 
-0.000214001      10.0094      37.6938 
-8.79469e-05      9.32380      10.7565 
0.000767844      10.6566      151.896 
-0.000130719      4.62401     -116.453 
0.000294733      1.53416     -129.702 
8.94667e-05      7.82762      152.455 
-0.000147078      10.5575      115.108 
-4.71173e-05      4.18991      10.4526 
-4.69156e-05      5.76001      143.332 
0.000558077      8.15006     -94.9279 
-4.66976e-05      9.43053      156.372 
-4.67005e-05      7.79454      124.544 
-0.000113416      9.16017     -179.625 
-0.000411914      9.64507      18.2489 
-8.88869e-05      5.95871     -96.5513 
0.000131403      7.78057     -51.1581 
-0.000291921      8.96893     -104.066 
-8.81723e-05      10.5822     -152.659 
-0.000207247      10.9094      139.536 
-4.55410e-05      12.1640      49.8695 
0.000127914      6.77324     -170.479 
0.000235304      6.74648      84.8950 
0.000123741      9.26740      128.428 
-0.000128040      9.45722      156.309 
0.000395258      8.33345      166.397 
0.000166337      10.6745      151.947 
-0.000301602      10.8459     -66.4110 
-4.45155e-05      5.85124     -23.1455 
4.43042e-05      8.92911      58.0890 
-4.40763e-05      7.88735      72.4356 
-0.000122364      10.6708      107.449 
4.38896e-05      7.37114     -105.584 
-4.40522e-05      4.19349      10.7148 
-8.56352e-05      12.9404     -45.1879 
-0.000350638      13.2741      41.6405 
-0.000278408      9.16006     -179.751 
-4.32000e-05      10.8345     -70.9276 
-0.000333691      3.49437     -136.627 
8.32721e-05      6.54586      84.9162 
0.000158304      11.9078     -135.000 
0.000219399      9.27640     -23.9131 
-4.23269e-05      9.04704     -84.1636 
-0.000377578      10.1627      93.8357 
-0.000120615      12.2978      49.4196 
4.20495e-05      6.65591      128.900 
0.000185164      8.30257     -106.514 
-0.000212263      8.79186      33.8718 
0.000155467      7.95346      6.64225 
-0.000842688      13.1596      139.994 
-0.00116643      14.3125     -135.680 
0.000116529      7.82376      54.8878 
-4.12182e-05      13.4435     -137.049 
-8.01870e-05      9.26582      119.056 
-0.000116697      12.8737     -46.5115 
-4.11325e-05      7.81272      105.744 
0.000138226      6.01119      15.2419 
-0.000166471      12.1509      49.9425 
0.000181542      6.17138     -153.435 
-0.000489732      10.9493      155.961 
-0.000151407      9.98590     -4.13684 
-4.06154e-05      10.9140     -40.1697 
0.000208621      10.7664     -61.4826 
4.04122e-05      10.4014     -145.576 
0.000254968      10.8387     -123.484 
-0.000153248      7.88259      103.650 
4.02245e-05      7.59883      21.2971 
-0.000136390      6.20086     -88.8906 
0.000149837      7.76835     -51.2702 
-0.000360116      8.05197      64.7102 
-7.91411e-05      13.6194     -134.583 
-0.000478186      12.4766     -129.406 
0.000107400      6.64367      128.769 
0.000145007      8.34848     -148.519 
-3.97780e-05      4.21646      10.9360 
-0.000184952      11.3326      53.7553 
3.93536e-05      7.28538      46.4440 
-0.000108834      12.9542     -45.1267 
0.000182759      8.82562     -8.86246 
0.000112364      13.9466      46.1619 
-0.000781529      7.93728      108.207 
-0.000109246      12.3263      49.4093 
7.15083e-05      4.02101     -42.1787 
-3.88625e-05      9.06953      35.7587 
-0.000842323      11.0044     -157.678 
-0.000142966      6.84483      144.036 
0.000109388      10.3847     -145.513 
3.84850e-05      6.18046     -153.267 
-7.48358e-05      10.9295     -40.1012 
3.82625e-05      6.54410      85.0929 
-0.000327752      9.58660      11.9212 
0.000106915      5.38346     -66.5759 
3.81584e-05      10.8707      68.2977 
-0.000630152      12.7910     -38.1433 
9.68627e-05      12.5172      130.205 
-0.000106104      13.4573     -136.986 
-3.74676e-05      6.64546     -16.2555 
0.000250738      7.25399     -116.703 
-0.000301426      13.0350      131.516 
-0.000135719      11.6573     -125.926 
-3.73567e-05      12.1228      49.9515 
7.36009e-05      8.08017     -90.0000 
-0.000103276      9.42835      50.1629 
-3.70873e-05      12.3390      49.3405 
0.000218675      11.7157     -133.201 
7.14210e-05      4.00744     -41.9641 
-0.000306223      9.60642      11.8963 
-3.67615e-05      8.53178     -4.97498 
7.21430e-05      6.78991     -170.676 
0.000134257      7.28526      46.2228 
-0.000455044      8.14708      58.1457 
0.000197442      10.8783      68.1986 
-0.000131788      12.1214     -45.8678 
6.70574e-05      7.33890     -168.044 
-0.000137808      13.6333     -134.525 
-0.000138013      9.27568      119.165 
-0.000135492      10.9248      139.605 
0.000134635      9.85691      115.993 
0.000165355      9.32057      60.8513 
0.000168919      11.7726      127.336 
-0.000164162      10.6128     -110.517 
-0.000102628      11.6312      133.050 
-0.000104837      13.5676      136.614 
-3.56984e-05      13.3035     -137.194 
3.56246e-05      11.7018     -133.129 
-0.000271620      10.8510     -34.3340 
-3.51415e-05      9.99337      37.7648 
0.000157358      8.78329     -26.7971 
0.000158281      9.51525      3.25502 
-3.49034e-05      9.08598      35.6840 
0.000309374      12.5018      130.265 
-0.000124413      12.8877     -46.4462 
-3.48765e-05      5.31089      79.3664 
-3.47850e-05      9.04912     -84.0360 
-0.000493814      12.9802     -42.5658 
-6.76679e-05      10.9320     -39.9516 
-9.85314e-05      9.18032     -179.752 
0.000158718      8.41514     -8.61060 
0.000642028      11.8737     -50.3307 
-6.60980e-05      7.88722      103.788 
9.25943e-05      9.66385     -84.5373 
0.000371619      7.40303     -31.9728 
0.000211917      7.75306      7.86032 
-0.000290346      9.31116      171.976 
-0.000363710      13.2886     -137.135 
-9.61566e-05      2.38546      55.2501 
-0.000155293      11.3206      53.8380 
-0.000258986      13.5529      136.555 
0.000183376      8.76521     -26.8568 
0.000450944      10.5761      14.9039 
3.33635e-05      6.52391      85.0776 
0.000263866      8.30974      166.501 
-6.46096e-05      3.36742     -176.256 
-0.000185104      13.6475     -134.586 
6.41226e-05      9.11522      6.30008 
-0.000616048      11.6064      28.2882 
-5.96251e-05      8.43435      12.3237 
-3.29255e-05      6.65928     -16.0394 
-3.27626e-05      10.1035     -174.660 
-6.37301e-05      8.48940     -121.220 
-6.45926e-05      9.98934      37.9244 
-0.000191408      10.1659     -1.91620 
6.29978e-05      7.75569     -51.3869 
6.32134e-05      8.84489     -8.84299 
9.34669e-05      1.98021     -45.0000 
3.22706e-05      10.8612      123.663 
-3.21990e-05      5.05949     -4.98594 
3.22217e-05      1.52809     -127.016 
0.000145759      9.66194     -84.6569 
-0.000329764      8.31567      135.197 
0.000235120      8.36577     -148.591 
-0.000121320      13.2590      41.6987 
-9.34269e-05      10.9470     -39.8860 
8.78367e-05      8.26592      7.22824 
0.000179231      8.34278      33.9559 
-0.000147142      11.6450      133.123 
-6.13287e-05      5.77380      101.386 
0.000229990      9.51176     -30.4451 
0.000429932      9.25788     -23.9639 
0.000179746      11.5933     -146.612 
-0.000173102      8.88818     -150.030 
-6.14127e-05      8.13870     -55.4118 
0.000322165      10.1662     -118.430 
0.000160463      6.74470      85.0664 
-6.04543e-05      9.96570     -4.14525 
-6.16537e-05      9.24877      119.115 
-6.07612e-05      4.52891      162.529 
3.11633e-05      13.9606      46.1020 
-3.11003e-05      12.7756     -38.1973 
-9.06278e-05      9.76722      105.315 
-0.000422698      13.5815      136.551 
0.000191242      10.8280     -123.398 
-0.000279160      10.9397      139.671 
3.06167e-05      4.00658     -42.3661 
-3.04528e-05      10.8476     -70.7290 
-0.000114916      8.29060     -136.566 
0.000165638      7.43706     -65.3666 
5.89055e-05      4.75296      73.6222 
-8.57061e-05      10.8645     -66.4538 
0.000138724      6.15393     -153.354 
0.000397951      9.38293     -57.8008 
2.98979e-05      9.22683      128.313 
-2.97450e-05      3.47967     -136.398 
-0.000143809      10.9625     -39.8181 
-0.000324244      11.6692     -126.006 
0.000457445      12.2274      131.485 
-8.32165e-05      10.8750     -66.5943 
0.000164232      10.8327     -27.3709 
-0.000432424      10.0908      80.0698 
0.000113935      7.51074      34.3664 
-8.28758e-05      9.97396      37.9933 
2.95025e-05      9.91350      176.993 
-0.000112252      10.4147      74.1743 
-0.000114889      13.0064      131.508 
2.94462e-05      8.91255      58.0227 
-0.000111706      10.1081     -42.4336 
-2.92458e-05      8.47208     -121.291 
2.93294e-05      8.41213     -8.47416 
-8.49218e-05      2.39707      54.8522 
-0.000683842      12.3036     -34.0012 
-0.000136927      10.8781      145.639 
-5.61656e-05      9.41586      50.2541 
-2.89097e-05      11.4993      130.838 
0.000109139      11.0753     -62.2335 
0.000215384      11.3778     -154.155 
-8.30811e-05      8.16217     -178.593 
2.87101e-05      5.71535      26.3867 
-5.25938e-05      9.77260      105.430 
-0.000182858      9.77540     -31.4450 
5.58964e-05      7.27125      46.3381 
-2.85820e-05      7.66858      65.1728 
-0.000158213      10.0599      89.6581 
0.000134064      10.7895     -22.3342 
-2.85386e-05      10.8557     -70.2988 
-2.83284e-05      12.1919      49.8558 
-8.06424e-05      5.77783      101.583 
-5.55549e-05      10.0600      89.5427 
9.97711e-05      7.45320     -44.4534 
-0.000259940      8.87128     -149.967 
-0.000154406      9.91248      17.3760 
-7.88163e-05      12.2719      49.5606 
0.000401624      11.5764     -146.557 
-0.000103178      11.5257     -141.341 
-8.26447e-05      13.6612     -134.644 
-0.000229611      11.8306      131.506 
-2.79713e-05      7.49054     -3.06075 
-2.79072e-05      12.6834      129.688 
2.78285e-05      1.96594     -45.4175 
0.000451480      13.4790     -44.0978 
-0.000278568      13.3699      40.1440 
-5.41394e-05      11.3370      53.8985 
-8.09701e-05      8.26948     -156.785 
0.000172390      4.77240      73.6908 
5.35666e-05      7.74306     -51.5041 
0.000383913      10.8977     -38.7442 
0.000398143      12.9202      47.0711 
0.000277184      7.41052     -65.4384 
-0.000130256      9.17832     -86.3766 
-0.000203303      10.2787      33.4128 
0.000227472      6.63101      128.632 
-0.000286359      10.9781     -39.7504 
5.42042e-05      9.95322      177.005 
2.73845e-05      8.90184      58.1334 
-5.32813e-05      11.1371      25.6431 
0.000107251      8.35412      34.0712 
-0.000298232      12.9935      131.444 
-0.000323084      10.0879     -5.57489 
0.000372295      7.27142     -116.634 
-2.72229e-05      8.16267     -178.457 
2.70963e-05      12.5247      35.3126 
2.69002e-05      6.71837     -13.9540 
-7.62233e-05      4.36639      155.078 
2.69417e-05      14.2566      45.7976 
5.25925e-05      6.95409      80.5661 
7.81694e-05      7.52747      34.2794 
-0.000245591      8.18242     -178.597 
-0.000125256      4.54824      162.605 
0.000271084      10.6702      163.670 
0.000152554      11.1879     -151.374 
-0.000148088      7.15909      10.4595 
5.17926e-05      11.9503     -135.066 
-2.63733e-05      10.1594     -169.221 
0.000152845      14.2707      45.7392 
-0.000200664      11.8440      131.579 
-0.000101226      8.30477     -136.659 
-2.61923e-05      6.27380     -172.488 
7.70316e-05      9.97345      177.011 
2.60885e-05      10.5858      16.6880 
0.000171601      12.4887      130.194 
0.000146768      1.37736      99.1852 
-2.60023e-05      10.1110      164.865 
-0.000170430      10.0312      104.314 
7.48830e-05      8.32871      166.532 
-0.000217551      9.33122      171.994 
-2.56792e-05      10.8280     -66.3697 
-7.37909e-05      7.66135     -28.7063 
-0.000216844      11.1118      119.194 
-0.000124096      13.6754     -134.704 
0.000143648      8.37091      33.9935 
-9.96372e-05      10.1684      175.713 
0.000123395      13.4792      42.2338 
-0.000121351      10.8671     -34.2760 
-7.49390e-05      10.9266      139.752 
2.53251e-05      11.7560     -145.254 
-2.52761e-05      10.8095     -66.3267 
4.96950e-05      6.93565      49.3261 
-0.000310731      10.1073      80.2027 
0.000168779      12.2538      33.4828 
-0.000119524      10.1234     -169.066 
-9.75734e-05      13.5879     -48.5194 
-7.31541e-05      8.25889     -156.600 
-2.50750e-05      8.12721     -55.5293 
-0.000168294      9.60226      11.7780 
-4.97873e-05      14.3127      134.433 
0.000238882      11.6686     -52.5199 
4.89402e-05      6.93410      80.5387 
0.000209803      11.0848     -62.1408 
9.64993e-05      10.9790      141.730 
2.48843e-05      7.54422      34.1927 
-0.000143888      10.8173     -66.2320 
-2.48801e-05      13.5002     -137.043 
-7.18275e-05      10.9006     -52.6055 
-7.22656e-05      10.1298      164.894 
0.000118712      11.9676     -148.463 
0.000192366      9.99369      177.017 
4.83960e-05      8.24582      7.24595 
-2.48766e-05      11.0448      128.532 
-9.55338e-05      7.49685     -25.2646 
0.000119070      7.39232     -31.8395 
9.58362e-05      3.66353     -44.3361 
0.000166668      10.5811      15.0060 
-0.000213767      10.9931     -39.6854 
-2.46813e-05      6.23973      97.9216 
2.47716e-05      9.99041      33.8190 
-0.000260437      14.3269      134.491 
2.45738e-05      8.37634     -148.473 
9.46092e-05      10.6111      16.7613 
4.77522e-05      12.4490     -55.3396 
-7.19625e-05      9.20223      146.346 
-7.16314e-05      10.2848      10.8713 
-4.82253e-05      9.56885      18.3994 
0.000118369      12.3038     -44.7381 
4.78496e-05      11.3867     -154.063 
0.000235668      14.2849      45.6810 
4.77330e-05      11.0863     -148.575 
-4.72655e-05      11.1323      39.0935 
-4.76646e-05      10.8949      145.699 
-0.000118064      11.0322      128.449 
-9.45722e-05      10.9421      139.821 
2.42004e-05      7.56037      34.1096 
-0.000118043      10.1467      175.818 
9.37041e-05      9.09456      86.7221 
0.000117606      10.1580     -118.585 
-0.000139094      5.82600     -141.831 
-2.39370e-05      11.1547      25.5997 
2.38554e-05      9.29286      100.416 
-4.71282e-05      7.94364      108.346 
9.33496e-05      11.2050     -151.422 
4.73067e-05      9.09725      83.5638 
9.33726e-05      13.4937      42.1781 
9.33237e-05      14.2985     -44.3749 
9.33851e-05      10.3403      21.2038 
-6.98362e-05      11.5410     -141.401 
-2.36511e-05      10.4705      74.7168 
-4.67791e-05      13.6756     -134.584 
-2.36110e-05      11.6812     -126.087 
-4.68043e-05      9.55034      18.4364 
2.34547e-05      7.57715      34.0237 
9.27632e-05      13.4937     -132.178 
-4.63691e-05      9.92508      17.2308 
-4.63967e-05      11.1149     -65.3278 
-4.63589e-05      10.4294      63.0920 
-2.32527e-05      8.34379      135.193 
-4.62725e-05      13.1911      39.2146 
4.61385e-05      10.1011     -12.0011 
-2.31791e-05      13.5145     -137.099 
4.59783e-05      12.9789      141.948 
-4.59440e-05      13.6008     -48.4578 
-2.30913e-05      10.3536      161.180 
-2.29907e-05      8.30454     -136.464 
4.57619e-05      10.0132      177.023 
-4.53371e-05      8.62508      82.9387 
-2.29999e-05      11.4492      117.237 
-2.30165e-05      13.2749     -137.199 
-2.29701e-05      13.0914     -49.3980 
-2.29917e-05      8.18292     -178.460 
-2.28900e-05      10.1886      175.721 
-2.29479e-05      4.55433      162.362 
2.28738e-05      8.30893      37.8614 
-2.28450e-05      13.1441      139.937 
-2.28442e-05      6.21966      97.9473 
2.28312e-05      6.17240      128.950 
-0.000251016      14.1596     -43.7976 
0.000286642      10.8076     -22.2949 
5.33040e-05      10.9135     -38.6777 
0.000147308      10.8263     -22.2542 
0.000141899      11.7565      127.396 
-4.99410e-05      11.5266      33.9652 
-0.000116559      10.8525     -52.9391 
0.000181869      11.1282      143.111 
-0.000320580      14.2985      134.375 
-7.22558e-05      9.50823      25.8108 
0.000116377      6.93092      80.6978 
-0.000161206      11.7328      56.8242 
-0.000159897      11.5380      34.0487 
6.88324e-05      12.9564     -38.9231 
-0.000116022      10.2175     -11.2868 
2.48120e-05      10.8850     -38.6610 
4.85065e-05      11.1439      143.171 
-0.000136528      8.41123     -4.91306 
-4.73267e-05      10.0073      104.229 
0.000158022      7.96285      45.7101 
-7.02976e-05      14.1456     -43.7383 
-7.02111e-05      8.42724      60.5772 
6.98654e-05      9.46191      173.447 
9.11364e-05      12.9722     -38.8669 
9.04396e-05      9.27848      96.4359 
-0.000133710      12.3193      42.1065 
-0.000134031      11.2056      148.947 
9.03323e-05      7.91684     -7.98725 
2.34165e-05      10.3164      52.6433 
-2.31794e-05      9.65359      104.642 
-8.91676e-05      11.8042      121.914 
-4.54344e-05      13.7745      44.8808 
2.30679e-05      4.77792      73.4662 
-4.47836e-05      9.89373      68.4124 
-0.000132592      13.3941     -45.9079 
8.92331e-05      6.30168     -13.0202 
-4.43823e-05      11.1878      29.6824 
4.46124e-05      7.66207      1.34683 
2.25539e-05      9.09508      83.6859 
2.24843e-05      13.0035      51.8101 
4.40772e-05      10.3802     -145.360 
4.36790e-05      7.48131     -44.4595 
4.36923e-05      7.37512     -31.9226 
-4.34147e-05      9.62887      104.556 
4.36764e-05      7.28053     -116.776 
-4.36665e-05      9.39657     -119.730 
-4.38064e-05      11.3136      54.0612 
-4.35987e-05      8.10474     -125.964 
-2.20215e-05      8.39550      12.3816 
-4.31222e-05      6.79125      121.020 
-4.35596e-05      8.78059      33.7620 
-2.18978e-05      10.0262      104.202 
2.17701e-05      10.3003      52.5749 
-8.61121e-05      10.9602     -157.693 
-2.17515e-05      8.49810     -106.688 
2.16681e-05      8.28219     -88.6138 
-4.30990e-05      4.57457     -163.230 
-4.32316e-05      9.18537      146.276 
6.46071e-05      9.10548      127.954 
-4.28551e-05      11.2089     -25.4671 
-2.14780e-05      9.77801      105.544 
-2.28299e-05      11.3250      53.9813 
6.59316e-05      7.89678     -8.00768 
-2.26519e-05      10.1017     -174.775 
4.40916e-05      11.1027     -62.1897 
4.38277e-05      10.6292      151.941 
2.23419e-05      12.9914      51.8777 
-4.39102e-05      11.2176     -25.5606 
2.22186e-05      9.00504      40.7660 
-6.50870e-05      8.09330     -125.852 
-4.36358e-05      9.19690      152.264 
-4.33822e-05      11.2600      144.616 
-2.19455e-05      6.80171      121.166 
2.18586e-05      10.3635     -145.296 
4.31174e-05      8.59817      3.73292 
2.17664e-05      10.1640     -126.601 
-2.15736e-05      7.13917      10.4891 
-4.28525e-05      12.4445      47.6687 
-4.27940e-05      9.90801     -138.848 
2.15214e-05      8.98971      40.8503 
-2.14327e-05      10.9315      155.919 
-2.13141e-05      7.64424     -28.7765 
-2.13814e-05      10.7367      127.660 
2.12655e-05      7.60528      34.0648 
! Tentative model.
! Flux (Jy) Radius (mas)  Theta (deg)  Major FWHM (mas)  Axial ratio   Phi (deg) T \
! Freq (Hz)     SpecIndex
2.25035e-05      12.9911      51.8775 
